Scan Count	Temperature [ITS-90, deg C]	Conductivity [S/m]	Pressure, Strain Gauge [db]	Depth [salt water, m]	Oxygen Saturation, Weiss [ml/l]	Salinity, Practical [PSU]
1	10.26444	0.0004225	0.1288	0.1281	7.841664	0.00678
2	10.26766	0.0003948	0.1258	0.1251	7.841078	0.00665
3	10.26670	0.0003794	0.1258	0.1251	7.841259	0.00657
4	10.26140	0.0003855	0.1288	0.1281	7.842234	0.00660
5	10.25023	0.0004010	0.1258	0.1251	7.844289	0.00667
6	10.23680	0.0004040	0.1258	0.1251	7.846763	0.00668
7	10.22654	0.0003948	0.1287	0.1280	7.848659	0.00663
8	10.21741	0.0003855	0.1287	0.1280	7.850346	0.00658
9	10.21347	0.0003670	0.1258	0.1251	7.851079	0.00648
10	10.21330	0.0003640	0.1350	0.1342	7.851111	0.00647
11	10.21634	0.0003485	0.1348	0.1341	7.850552	0.00640
12	10.22175	0.0003331	0.1350	0.1343	7.849557	0.00633
13	10.22863	0.0003794	0.1257	0.1250	7.848277	0.00655
14	10.23635	0.0004133	0.1349	0.1342	7.846844	0.00672
15	10.24323	0.0004040	0.1288	0.1281	7.845578	0.00668
16	10.24932	0.0004010	0.1318	0.1311	7.844456	0.00667
17	10.25491	0.0003855	0.1287	0.1280	7.843430	0.00659
18	10.26072	0.0003701	0.1319	0.1311	7.842363	0.00652
19	10.26608	0.0003424	0.1288	0.1281	7.841382	0.00639
20	10.27206	0.0003239	0.1257	0.1250	7.840284	0.00631
21	10.27641	0.0003146	0.1197	0.1190	7.839486	0.00627
22	10.27957	0.0003146	0.1257	0.1250	7.838904	0.00627
23	10.28115	0.0003085	0.1227	0.1220	7.838614	0.00624
24	10.28471	0.0003331	0.1288	0.1281	7.837954	0.00636
25	10.28888	0.0003424	0.1318	0.1311	7.837183	0.00640
26	10.29142	0.0003640	0.1318	0.1310	7.836710	0.00651
27	10.29188	0.0003763	0.1257	0.1250	7.836624	0.00657
28	10.28984	0.0003855	0.1227	0.1220	7.836996	0.00661
29	10.28600	0.0003855	0.1257	0.1250	7.837702	0.00661
30	10.28239	0.0003948	0.1258	0.1251	7.838365	0.00665
31	10.28369	0.0003794	0.1319	0.1311	7.838130	0.00658
32	10.28578	0.0003855	0.1288	0.1281	7.837744	0.00661
33	10.28668	0.0003794	0.1288	0.1281	7.837579	0.00658
34	10.28832	0.0003763	0.1228	0.1221	7.837279	0.00656
35	10.29205	0.0003855	0.1288	0.1281	7.836590	0.00661
36	10.29622	0.0003855	0.1319	0.1311	7.835822	0.00661
37	10.30001	0.0003948	0.1319	0.1312	7.835123	0.00666
38	10.30300	0.0004010	0.1288	0.1281	7.834571	0.00669
39	10.30594	0.0003948	0.1257	0.1250	7.834032	0.00666
40	10.30893	0.0003948	0.1318	0.1311	7.833482	0.00666
41	10.31317	0.0003794	0.1349	0.1341	7.832706	0.00659
42	10.31803	0.0003670	0.1349	0.1342	7.831816	0.00653
43	10.32210	0.0003640	0.1319	0.1311	7.831069	0.00652
44	10.32555	0.0003578	0.1318	0.1311	7.830436	0.00649
45	10.33035	0.0003578	0.1320	0.1312	7.829554	0.00650
46	10.33510	0.0003547	0.1350	0.1343	7.828682	0.00648
47	10.33962	0.0003424	0.1320	0.1312	7.827854	0.00643
48	10.34313	0.0003331	0.1288	0.1281	7.827212	0.00639
49	10.34618	0.0003300	0.1319	0.1312	7.826652	0.00637
50	10.34867	0.0003239	0.1289	0.1282	7.826197	0.00634
51	10.35223	0.0003085	0.1258	0.1251	7.825546	0.00628
52	10.35365	0.0003054	0.1320	0.1312	7.825288	0.00626
53	10.35608	0.0003054	0.1320	0.1312	7.824841	0.00626
54	10.35959	0.0002930	0.1288	0.1281	7.824200	0.00621
55	10.36321	0.0002869	0.1319	0.1312	7.823537	0.00618
56	10.36688	0.0002838	0.1319	0.1312	7.822863	0.00617
57	10.37079	0.0002776	0.1289	0.1282	7.822148	0.00614
58	10.37441	0.0002869	0.1290	0.1283	7.821482	0.00619
59	10.37769	0.0002838	0.1350	0.1342	7.820881	0.00617
60	10.38001	0.0002776	0.1320	0.1312	7.820457	0.00615
61	10.38211	0.0002838	0.1320	0.1312	7.820071	0.00618
62	10.38494	0.0002776	0.1290	0.1283	7.819554	0.00615
63	10.38748	0.0002715	0.1289	0.1282	7.819088	0.00612
64	10.38839	0.0002684	0.1289	0.1282	7.818923	0.00611
65	10.38799	0.0002715	0.1319	0.1312	7.818995	0.00612
66	10.38731	0.0002684	0.1350	0.1343	7.819120	0.00611
67	10.38726	0.0002622	0.1260	0.1253	7.819132	0.00608
68	10.38550	0.0002715	0.1290	0.1283	7.819451	0.00612
69	10.38347	0.0002684	0.1320	0.1313	7.819826	0.00611
70	10.38126	0.0002715	0.1321	0.1314	7.820230	0.00612
71	10.36875	0.0002684	0.1290	0.1283	7.822524	0.00610
72	10.35144	0.0002715	0.1351	0.1343	7.825700	0.00611
73	10.33425	0.0002622	0.1320	0.1313	7.828859	0.00606
74	10.31809	0.0002684	0.1321	0.1314	7.831828	0.00608
75	10.30328	0.0002715	0.1291	0.1284	7.834549	0.00608
76	10.28973	0.0002715	0.1322	0.1315	7.837043	0.00608
77	10.27624	0.0002684	0.1322	0.1315	7.839528	0.00605
78	10.26337	0.0002776	0.1320	0.1313	7.841896	0.00609
79	10.25130	0.0002684	0.1321	0.1314	7.844123	0.00604
80	10.24227	0.0002715	0.1291	0.1284	7.845786	0.00605
81	10.23917	0.0002715	0.1322	0.1315	7.846358	0.00605
82	10.23669	0.0002684	0.1291	0.1284	7.846816	0.00604
83	10.22677	0.0002715	0.1291	0.1284	7.848646	0.00604
84	10.22372	0.0002684	0.1291	0.1284	7.849208	0.00603
85	10.22716	0.0002776	0.1353	0.1345	7.848572	0.00607
86	10.23291	0.0002869	0.1413	0.1405	7.847509	0.00612
87	10.05118	1.0027172	0.2176	0.2164	7.484782	8.13411
88	9.42463	2.0790338	0.2846	0.2830	7.120477	18.24960
89	8.93666	2.1250375	0.3516	0.3496	7.169045	18.94787
90	8.59724	2.1573943	0.4828	0.4801	7.202628	19.44829
91	8.33668	2.1941515	0.6137	0.6103	7.222871	19.95738
92	8.14687	2.2119924	0.7417	0.7376	7.241668	20.24371
93	8.02402	2.2210841	0.8729	0.8681	7.254976	20.40596
94	7.94976	2.2114771	0.9643	0.9590	7.270150	20.35247
95	7.91063	2.1947568	0.9948	0.9893	7.283681	20.20680
96	7.91339	2.1975188	0.9856	0.9802	7.281977	20.23301
97	7.93864	2.1961565	0.9827	0.9773	7.278980	20.20473
98	7.94587	2.2028127	0.9765	0.9711	7.274797	20.26752
99	7.93093	2.2124727	0.9855	0.9801	7.272385	20.37343
100	7.91254	2.2183019	0.9795	0.9741	7.272274	20.44288
101	7.90372	2.2216734	0.9887	0.9832	7.271947	20.48202
102	7.90356	2.2259405	0.9948	0.9893	7.269952	20.52515
103	7.89969	2.2371530	1.0040	0.9984	7.265205	20.64057
104	7.88598	2.2503875	1.0011	0.9956	7.260905	20.78234
105	7.87234	2.2553197	1.0039	0.9984	7.260520	20.84031
106	7.86321	2.2581570	0.9979	0.9924	7.260480	20.87445
107	7.85774	2.2609133	0.9979	0.9924	7.259954	20.90560
108	7.85477	2.2637530	0.9980	0.9925	7.259032	20.93611
109	7.85435	2.2656231	0.9916	0.9862	7.258207	20.95529
110	7.85435	2.2657986	0.9826	0.9772	7.258123	20.95707
111	7.85318	2.2654805	0.9948	0.9893	7.258441	20.95455
112	7.85079	2.2658480	0.9948	0.9893	7.258607	20.95970
113	7.84867	2.2669615	0.9949	0.9894	7.258382	20.97225
114	7.84703	2.2681685	1.0041	0.9986	7.258044	20.98545
115	7.84612	2.2691947	1.0042	0.9987	7.257687	20.99638
116	7.84559	2.2682454	1.0041	0.9985	7.258212	20.98709
117	7.84421	2.2659961	0.9980	0.9925	7.259476	20.96514
118	7.84114	2.2651570	0.9949	0.9895	7.260313	20.95849
119	7.83716	2.2669945	0.9858	0.9804	7.260009	20.97949
120	7.83472	2.2685143	0.9919	0.9865	7.259636	20.99634
121	7.83546	2.2695954	0.9858	0.9804	7.259017	21.00685
122	7.83817	2.2679272	0.9858	0.9804	7.259422	20.98833
123	7.83987	2.2656506	0.9828	0.9774	7.260260	20.96425
124	7.84013	2.2657658	0.9919	0.9865	7.260168	20.96526
125	7.83976	2.2674224	0.9950	0.9895	7.259435	20.98226
126	7.83997	2.2687941	1.0103	1.0047	7.258754	20.99602
127	7.84236	2.2678668	1.0164	1.0108	7.258854	20.98519
128	7.85244	2.2629251	1.0195	1.0139	7.259758	20.92912
129	7.87388	2.2649758	1.0103	1.0048	7.255728	20.93705
130	7.88805	2.2727459	0.9889	0.9834	7.250030	21.00716
131	7.88344	2.2700670	0.9707	0.9654	7.251955	20.98284
132	7.86836	2.2686787	0.9736	0.9682	7.254761	20.97783
133	7.85801	2.2670931	0.9951	0.9896	7.256988	20.96798
134	7.85918	2.2652720	1.0226	1.0169	7.257684	20.94884
135	7.87011	2.2494738	1.0379	1.0322	7.263607	20.78252
136	7.88375	2.2471215	1.0318	1.0261	7.262770	20.75065
137	7.90351	2.2485107	1.0135	1.0079	7.259287	20.75297
138	7.94598	2.2544759	0.9858	0.9804	7.250408	20.78801
139	7.97279	2.2595753	0.9678	0.9624	7.244185	20.82354
140	7.97449	2.2601671	0.9739	0.9685	7.243664	20.82849
141	7.95295	2.2617512	0.9889	0.9834	7.245985	20.85729
142	7.93667	2.2592961	1.0073	1.0017	7.249461	20.84218
143	7.93545	2.2540051	1.0226	1.0169	7.252132	20.78950
144	7.92827	2.2534741	1.0347	1.0290	7.253407	20.78839
145	7.92253	2.2548977	1.0287	1.0230	7.253553	20.80618
146	7.93896	2.2574005	1.0225	1.0169	7.250030	20.82168
147	7.94752	2.2614882	1.0012	0.9957	7.246882	20.85786
148	7.94550	2.2644268	0.9708	0.9655	7.245783	20.88873
149	7.93747	2.2658199	0.9677	0.9623	7.246269	20.90759
150	7.91132	2.2678773	0.9769	0.9715	7.249020	20.94400
151	7.88821	2.2691944	1.0043	0.9988	7.251688	20.97114
152	7.88397	2.2607487	1.0380	1.0323	7.256290	20.88826
153	7.89719	2.2565901	1.0379	1.0322	7.256370	20.83834
154	7.90293	2.2553250	1.0227	1.0171	7.256149	20.82215
155	7.93433	2.2600195	1.0014	0.9959	7.249453	20.85088
156	7.96593	2.2638290	0.9893	0.9838	7.243159	20.87052
157	7.97370	2.2671746	0.9983	0.9929	7.240479	20.89964
158	7.96550	2.2676958	1.0075	1.0019	7.241398	20.90979
159	7.95960	2.2636042	1.0045	0.9990	7.244166	20.87202
160	7.96534	2.2605673	1.0013	0.9958	7.244779	20.83796
161	7.96029	2.2619430	0.9891	0.9837	7.244850	20.85485
162	7.96960	2.2661707	0.9891	0.9837	7.241534	20.89196
163	7.97481	2.2684639	0.9985	0.9930	7.239713	20.91199
164	7.96832	2.2691444	1.0198	1.0142	7.240315	20.92272
165	7.95438	2.2665603	1.0197	1.0141	7.243514	20.90496
166	7.95438	2.2630066	1.0229	1.0173	7.245189	20.86909
167	7.95013	2.2622611	0.9985	0.9930	7.246146	20.86411
168	7.96598	2.2656716	0.9863	0.9809	7.242283	20.88908
169	7.98008	2.2682663	0.9802	0.9748	7.239057	20.90686
170	7.98700	2.2706755	0.9831	0.9777	7.236940	20.92703
171	7.97865	2.2714935	0.9985	0.9930	7.237742	20.94026
172	7.96587	2.2706043	1.0046	0.9991	7.239975	20.93892
173	7.96827	2.2688151	1.0137	1.0081	7.240478	20.91943
174	7.97551	2.2679975	1.0198	1.0142	7.239834	20.90686
175	7.97614	2.2689413	1.0229	1.0173	7.239299	20.91600
176	7.97375	2.2703902	1.0230	1.0174	7.238957	20.93205
177	7.97056	2.2712190	1.0017	0.9962	7.239020	20.94233
178	7.96885	2.2720425	0.9894	0.9840	7.238874	20.95166
179	7.96864	2.2740961	0.9832	0.9778	7.237937	20.97252
180	7.96747	2.2756945	0.9956	0.9901	7.237351	20.98935
181	7.95976	2.2750683	1.0047	0.9991	7.238741	20.98764
182	7.94305	2.2751948	1.0170	1.0114	7.241053	20.99892
183	7.92865	2.2738713	1.0201	1.0144	7.243725	20.99419
184	7.92732	2.2719934	1.0140	1.0084	7.244800	20.97601
185	7.92780	2.2708186	1.0049	0.9994	7.245287	20.96385
186	7.93784	2.2724380	1.0016	0.9961	7.243094	20.97420
187	7.95465	2.2753979	0.9957	0.9902	7.239311	20.99403
188	7.96433	2.2771064	0.9927	0.9873	7.237131	21.00548
189	7.97636	2.2769250	0.9987	0.9932	7.235511	20.99644
190	7.98466	2.2754307	0.9896	0.9842	7.235036	20.97640
191	7.99632	2.2747440	0.9927	0.9873	7.233705	20.96250
192	8.00165	2.2768479	0.9927	0.9872	7.231961	20.98053
193	7.99621	2.2784799	1.0080	1.0025	7.231964	21.00024
194	7.97801	2.2784031	1.0141	1.0085	7.234581	21.01037
195	7.95768	2.2770240	1.0202	1.0146	7.238114	21.00863
196	7.95231	2.2745631	1.0141	1.0085	7.240037	20.98700
197	7.95247	2.2732451	1.0020	0.9965	7.240635	20.97360
198	7.96784	2.2747717	0.9867	0.9813	7.237732	20.97981
199	7.99174	2.2775018	0.9838	0.9784	7.233057	20.99306
200	8.00825	2.2789964	0.9928	0.9874	7.230015	20.99825
201	8.00985	2.2792052	1.0050	0.9995	7.229691	20.99939
202	7.99142	2.2783810	1.0112	1.0056	7.232689	21.00211
203	7.98839	2.2760459	1.0142	1.0086	7.234218	20.98037
204	7.99318	2.2754581	1.0112	1.0057	7.233815	20.97157
205	7.98333	2.2766997	1.0204	1.0148	7.234628	20.98999
206	7.97056	2.2782163	1.0113	1.0057	7.235726	21.01295
207	7.96178	2.2786065	1.0082	1.0026	7.236787	21.02216
208	7.95816	2.2782164	1.0051	0.9996	7.237484	21.02039
209	7.96061	2.2785296	0.9870	0.9815	7.236989	21.02209
210	7.96561	2.2804863	0.9747	0.9694	7.235358	21.03885
211	7.96641	2.2816902	0.9901	0.9846	7.234678	21.05053
212	7.95848	2.2812395	1.0022	0.9967	7.236015	21.05073
213	7.94252	2.2811406	1.0114	1.0059	7.238325	21.05932
214	7.92732	2.2802502	1.0205	1.0149	7.240903	21.05946
215	7.92482	2.2763760	1.0146	1.0090	7.243087	21.02180
216	7.93194	2.2741843	1.0085	1.0029	7.243109	20.99538
217	7.97843	2.2753703	0.9811	0.9757	7.235948	20.97952
218	8.03318	2.2777213	0.9749	0.9696	7.227082	20.97048
219	8.06805	2.2797599	0.9842	0.9788	7.221192	20.97018
220	8.06752	2.2805295	1.0055	1.0000	7.220907	20.97824
221	8.03564	2.2802878	1.0147	1.0091	7.225531	20.99487
222	8.01640	2.2764247	1.0206	1.0150	7.230069	20.96743
223	8.01384	2.2748702	1.0147	1.0091	7.231161	20.95329
224	8.00782	2.2736400	0.9995	0.9940	7.232592	20.94449
225	8.03025	2.2755182	0.9842	0.9788	7.228531	20.95003
226	8.05051	2.2770618	0.9781	0.9728	7.224938	20.95349
227	8.06395	2.2792543	0.9935	0.9880	7.222010	20.96754
228	8.06272	2.2803426	1.0088	1.0032	7.221674	20.97922
229	8.05035	2.2795072	1.0209	1.0153	7.223815	20.97820
230	8.03638	2.2756445	1.0149	1.0093	7.227604	20.94763
231	8.03121	2.2743922	1.0088	1.0032	7.228924	20.93810
232	8.03494	2.2746558	0.9966	0.9911	7.228271	20.93854
233	8.05525	2.2763750	0.9877	0.9822	7.224589	20.94374
234	8.06779	2.2787596	0.9907	0.9853	7.221698	20.96026
235	8.06789	2.2799083	1.0060	1.0005	7.221145	20.97176
236	8.06064	2.2791114	1.0089	1.0034	7.222545	20.96807
237	8.05536	2.2766497	1.0120	1.0064	7.224445	20.94643
238	8.05312	2.2758092	1.0059	1.0004	7.225156	20.93930
239	8.04390	2.2773750	0.9998	0.9943	7.225728	20.96058
240	8.03430	2.2800845	0.9969	0.9914	7.225815	20.99362
241	8.02402	2.2811400	0.9999	0.9944	7.226775	21.01042
242	8.01283	2.2808157	0.9999	0.9944	7.228512	21.01385
243	8.00857	2.2792052	1.0031	0.9975	7.229872	21.00016
244	8.01145	2.2790183	0.9940	0.9885	7.229552	20.99655
245	8.01219	2.2811896	0.9970	0.9915	7.228426	21.01800
246	8.00463	2.2816680	1.0092	1.0036	7.229273	21.02736
247	7.98663	2.2814647	1.0184	1.0128	7.231918	21.03610
248	7.97013	2.2797057	1.0183	1.0128	7.235085	21.02824
249	7.96534	2.2772767	1.0155	1.0099	7.236908	21.00659
250	7.96598	2.2762823	0.9788	0.9735	7.237285	20.99618
251	7.99467	2.2784029	0.9727	0.9673	7.232218	21.00040
252	8.02173	2.2810246	0.9728	0.9674	7.227153	21.01063
253	8.03606	2.2821956	1.0003	0.9948	7.224576	21.01384
254	8.01683	2.2826576	1.0186	1.0130	7.227081	21.03002
255	7.98849	2.2800573	1.0277	1.0221	7.232316	21.02078
256	7.98413	2.2761393	1.0308	1.0251	7.234778	20.98385
257	7.97588	2.2738929	1.0096	1.0041	7.237006	20.96613
258	7.99797	2.2740410	0.9973	0.9919	7.233801	20.95442
259	8.03628	2.2772267	0.9791	0.9737	7.226876	20.96365
260	8.06192	2.2785453	0.9821	0.9767	7.222628	20.96161
261	8.06571	2.2802107	0.9945	0.9890	7.221313	20.97612
262	8.05547	2.2811453	1.0065	1.0010	7.222323	20.99165
263	8.04294	2.2808870	1.0189	1.0133	7.224217	20.99653
264	8.03755	2.2785016	1.0250	1.0194	7.226098	20.97572
265	8.04374	2.2764740	1.0281	1.0224	7.226173	20.95159
266	8.04177	2.2764960	1.0220	1.0164	7.226442	20.95299
267	8.03777	2.2769465	1.0098	1.0043	7.226797	20.95993
268	8.04187	2.2781443	0.9916	0.9861	7.225654	20.96955
269	8.04305	2.2810904	0.9825	0.9771	7.224106	20.99853
270	8.04081	2.2825420	0.9947	0.9893	7.223742	21.01450
271	8.03238	2.2825695	1.0069	1.0014	7.224920	21.01981
272	8.01656	2.2818053	1.0131	1.0075	7.227519	21.02159
273	8.00969	2.2800077	1.0100	1.0044	7.229336	21.00758
274	8.01123	2.2792547	1.0101	1.0045	7.229471	20.99906
275	8.00601	2.2803101	1.0163	1.0107	7.229715	21.01283
276	7.99781	2.2821409	1.0102	1.0046	7.230016	21.03622
277	7.98961	2.2828228	1.0163	1.0107	7.230857	21.04802
278	7.98418	2.2808599	1.0040	0.9985	7.232549	21.03147
279	7.98647	2.2792329	0.9890	0.9836	7.232990	21.01368
280	7.98977	2.2810028	0.9921	0.9866	7.231690	21.02956
281	7.98727	2.2835762	0.9981	0.9926	7.230834	21.05703
282	7.97492	2.2834608	1.0103	1.0048	7.232638	21.06328
283	7.94986	2.2833015	1.0195	1.0139	7.236265	21.07674
284	7.93152	2.2801072	1.0227	1.0171	7.240375	21.05549
285	7.92588	2.2783045	1.0044	0.9988	7.242025	21.04066
286	7.92812	2.2787607	0.9831	0.9777	7.241492	21.04393
287	7.95087	2.2810526	0.9831	0.9777	7.237181	21.05342
288	7.96784	2.2826470	1.0044	0.9989	7.234024	21.05932
289	7.95949	2.2821852	1.0288	1.0232	7.235426	21.05967
290	7.93721	2.2809373	1.0258	1.0202	7.239176	21.06045
291	7.93189	2.2775572	1.0167	1.0111	7.241525	21.02949
292	7.92604	2.2757222	1.0014	0.9959	7.243221	21.01446
293	7.93705	2.2763759	0.9863	0.9809	7.241349	21.01447
294	7.96359	2.2787054	0.9832	0.9778	7.236484	21.02208
295	7.97753	2.2807885	0.9924	0.9869	7.233526	21.03474
296	7.97700	2.2815417	1.0077	1.0022	7.233247	21.04266
297	7.96518	2.2809316	1.0231	1.0175	7.235209	21.04359
298	7.95460	2.2778757	1.0261	1.0204	7.238151	21.01908
299	7.95406	2.2768263	1.0170	1.0114	7.238721	21.00880
300	7.95327	2.2770515	1.0080	1.0024	7.238728	21.01156
301	7.96433	2.2785461	1.0048	0.9993	7.236453	21.02002
302	7.97018	2.2807391	1.0111	1.0055	7.234591	21.03865
303	7.96880	2.2808381	1.0142	1.0086	7.234740	21.04047
304	7.96774	2.2783537	1.0112	1.0056	7.236061	21.01603
305	7.96885	2.2768976	0.9930	0.9875	7.236588	21.00066
306	7.97045	2.2790076	0.9806	0.9752	7.235368	21.02101
307	7.97524	2.2808160	0.9899	0.9844	7.233837	21.03640
308	7.97391	2.2807116	1.0082	1.0027	7.234075	21.03613
309	7.95109	2.2805084	1.0265	1.0209	7.237408	21.04778
310	7.92652	2.2797610	1.0418	1.0360	7.241248	21.05498
311	7.92051	2.2776727	1.0419	1.0361	7.243087	21.03748
312	7.91074	2.2765244	1.0236	1.0180	7.245018	21.03175
313	7.91477	2.2759256	0.9931	0.9876	7.244727	21.02328
314	7.94391	2.2767989	0.9749	0.9696	7.240175	21.01463
315	7.97795	2.2781448	0.9719	0.9665	7.234710	21.00781
316	7.99025	2.2796561	0.9841	0.9787	7.232255	21.01569
317	7.98892	2.2802222	1.0116	1.0060	7.232178	21.02219
318	7.97375	2.2800355	1.0359	1.0302	7.234417	21.02939
319	7.95162	2.2780736	1.0390	1.0333	7.238481	21.02286
320	7.94311	2.2770736	1.0330	1.0274	7.240160	21.01787
321	7.93391	2.2769638	1.0149	1.0093	7.241518	21.02228
322	7.93885	2.2778044	0.9996	0.9941	7.240419	21.02781
323	7.94369	2.2782879	0.9966	0.9912	7.239504	21.02979
324	7.94343	2.2794805	0.9997	0.9942	7.238979	21.04200
325	7.93843	2.2802226	1.0119	1.0063	7.239339	21.05250
326	7.93279	2.2801622	1.0240	1.0184	7.240167	21.05527
327	7.93162	2.2785023	1.0180	1.0124	7.241117	21.03920
328	7.93444	2.2777000	1.0149	1.0093	7.241095	21.02940
329	7.93418	2.2775297	1.0090	1.0035	7.241213	21.02784
330	7.94008	2.2785572	1.0060	1.0005	7.239890	21.03468
331	7.94619	2.2802720	0.9968	0.9913	7.238214	21.04834
332	7.94561	2.2801841	1.0121	1.0066	7.238338	21.04780
333	7.93237	2.2801072	1.0336	1.0279	7.240254	21.05497
334	7.91653	2.2788047	1.0335	1.0279	7.243118	21.05132
335	7.91164	2.2776727	1.0366	1.0309	7.244348	21.04282
336	7.90760	2.2770024	1.0031	0.9975	7.245238	21.03847
337	7.91961	2.2779089	0.9819	0.9765	7.243103	21.04043
338	7.93115	2.2789585	0.9758	0.9704	7.240969	21.04411
339	7.93354	2.2795850	0.9882	0.9828	7.240334	21.04900
340	7.92301	2.2790300	1.0156	1.0100	7.242091	21.04971
341	7.89815	2.2788049	1.0369	1.0312	7.245730	21.06238
342	7.88328	2.2773762	1.0339	1.0282	7.248520	21.05687
343	7.88067	2.2766620	1.0248	1.0192	7.249228	21.05121
344	7.87648	2.2767005	1.0066	1.0011	7.249807	21.05413
345	7.88545	2.2775300	0.9974	0.9919	7.248137	21.05713
346	7.89023	2.2787060	1.0128	1.0072	7.246902	21.06615
347	7.88917	2.2792336	1.0190	1.0134	7.246803	21.07213
348	7.88689	2.2784038	1.0251	1.0194	7.247521	21.06510
349	7.88651	2.2768487	1.0066	1.0011	7.248309	21.04959
350	7.88344	2.2770520	0.9946	0.9891	7.248651	21.05351
351	7.88375	2.2780521	0.9947	0.9893	7.248132	21.06344
352	7.88742	2.2793600	1.0068	1.0013	7.246992	21.07446
353	7.88805	2.2792776	1.0130	1.0075	7.246941	21.07324
354	7.88126	2.2794590	1.0223	1.0167	7.247822	21.07917
355	7.87430	2.2793052	1.0192	1.0136	7.248883	21.08180
356	7.87648	2.2788819	1.0192	1.0136	7.248774	21.07621
357	7.87542	2.2790688	1.0253	1.0197	7.248837	21.07874
358	7.86947	2.2796350	1.0254	1.0198	7.249414	21.08805
359	7.86369	2.2800363	1.0254	1.0198	7.250047	21.09560
360	7.85950	2.2797340	1.0133	1.0077	7.250787	21.09507
361	7.85907	2.2793053	0.9859	0.9805	7.251050	21.09100
362	7.86215	2.2797614	0.9768	0.9715	7.250396	21.09376
363	7.86263	2.2806025	0.9800	0.9746	7.249929	21.10199
364	7.85621	2.2801627	0.9982	0.9927	7.251052	21.10140
365	7.84310	2.2795857	1.0257	1.0201	7.253190	21.10346
366	7.83005	2.2793824	1.0258	1.0202	7.255144	21.10927
367	7.82576	2.2785966	1.0350	1.0293	7.256129	21.10389
368	7.82825	2.2780305	1.0350	1.0293	7.256043	21.09665
369	7.82868	2.2773437	1.0290	1.0233	7.256308	21.08943
