Scan Count	Temperature [ITS-90, deg C]	Conductivity [S/m]	Pressure, Strain Gauge [db]	Depth [salt water, m]	Oxygen Saturation, Weiss [ml/l]	Salinity, Practical [PSU]
1	16.83620	0.0028321	0.0088	0.0087	6.775610	0.02067
2	16.83404	0.0028321	0.0088	0.0087	6.775919	0.02067
3	16.83234	0.0028383	0.0088	0.0087	6.776159	0.02070
4	16.83207	0.0028228	0.0149	0.0148	6.776201	0.02062
5	16.83241	0.0028321	0.0088	0.0088	6.776151	0.02067
6	16.83261	0.0028228	0.0119	0.0118	6.776124	0.02062
7	16.83288	0.0028136	0.0088	0.0087	6.776087	0.02058
8	16.83370	0.0028136	0.0057	0.0057	6.775971	0.02058
9	16.83282	0.0028136	0.0057	0.0057	6.776097	0.02058
10	16.83085	0.0028136	0.0179	0.0178	6.776377	0.02058
11	16.82889	0.0028136	0.0118	0.0117	6.776657	0.02058
12	16.82015	0.0028043	0.0149	0.0148	6.777904	0.02053
13	16.80025	0.0028136	0.0087	0.0087	6.780740	0.02058
14	16.77677	0.0028136	0.0057	0.0057	6.784090	0.02057
15	16.76007	0.0028136	0.0087	0.0087	6.786475	0.02057
16	16.75805	0.0028228	0.0057	0.0057	6.786763	0.02062
17	16.76149	0.0029649	0.0057	0.0057	6.786241	0.02133
18	16.76467	0.0030667	0.0057	0.0057	6.785766	0.02185
19	16.76007	0.0031161	0.0057	0.0057	6.786413	0.02209
20	16.74392	0.0031532	0.0088	0.0087	6.788713	0.02228
21	16.72562	0.0033940	0.0118	0.0117	6.791280	0.02350
22	16.71502	0.0035824	0.0118	0.0117	6.792757	0.02447
23	16.71738	0.0037986	0.0118	0.0117	6.792374	0.02557
24	16.72204	0.0040456	0.0026	0.0026	6.791655	0.02684
25	16.72413	0.0042155	0.0057	0.0057	6.791320	0.02772
26	16.72184	0.0044256	0.0119	0.0118	6.791603	0.02881
27	16.71677	0.0046450	0.0088	0.0088	6.792281	0.02996
28	16.72130	0.0048860	0.0179	0.0178	6.791582	0.03121
29	16.72947	0.0050992	0.0057	0.0057	6.790367	0.03233
30	16.73717	0.0051703	0.0088	0.0087	6.789251	0.03270
31	16.74473	0.0052073	0.0118	0.0117	6.788162	0.03289
32	16.75007	0.0052970	0.0057	0.0057	6.787379	0.03336
33	16.75250	0.0052259	0.0088	0.0088	6.787047	0.03299
34	16.75487	0.0051610	0.0027	0.0027	6.786723	0.03265
35	16.75548	0.0051085	0.0118	0.0117	6.786648	0.03237
36	16.74872	0.0050652	0.0118	0.0118	6.787623	0.03215
37	16.74791	0.0050188	0.0057	0.0056	6.787748	0.03190
38	16.75061	0.0050034	0.0057	0.0057	6.787365	0.03182
39	16.74548	0.0049848	0.0088	0.0087	6.788103	0.03172
40	16.72413	0.0049570	0.0118	0.0117	6.791161	0.03159
41	16.69632	0.0049292	0.0088	0.0087	6.795147	0.03145
42	16.66645	0.0049076	0.0088	0.0087	6.799431	0.03134
43	16.63586	0.0049756	0.0057	0.0057	6.803804	0.03171
44	16.60637	0.0049570	0.0119	0.0118	6.808042	0.03162
45	16.57839	0.0049323	0.0088	0.0087	6.812069	0.03150
46	16.55096	0.0049200	0.0088	0.0088	6.816018	0.03144
47	16.52712	0.0050127	0.0088	0.0087	6.819431	0.03194
48	16.51410	0.0049848	0.0118	0.0118	6.821314	0.03179
49	16.51289	0.0049848	0.0119	0.0118	6.821488	0.03179
50	16.51242	0.0049725	0.0119	0.0118	6.821559	0.03173
51	16.51537	0.0049385	0.0119	0.0118	6.821140	0.03155
52	16.52202	0.0049169	0.0149	0.0148	6.820187	0.03143
53	16.52873	0.0049107	0.0149	0.0148	6.819221	0.03140
54	16.53115	0.0048921	0.0119	0.0118	6.818877	0.03130
55	16.52954	0.0048582	0.0089	0.0088	6.819117	0.03112
56	16.53484	0.0048303	0.0149	0.0148	6.818358	0.03097
57	16.54640	0.0048211	0.0118	0.0117	6.816697	0.03092
58	16.55896	0.0047964	0.0180	0.0179	6.814893	0.03079
59	16.57200	0.0047747	0.0119	0.0118	6.813022	0.03067
60	16.57792	0.0047593	0.0119	0.0118	6.812174	0.03059
61	16.56346	0.0047500	0.0088	0.0088	6.814256	0.03054
62	16.55587	0.0047253	0.0058	0.0058	6.815354	0.03042
63	16.56158	0.0046882	0.0119	0.0119	6.814540	0.03022
64	16.57281	0.0046697	0.0089	0.0088	6.812929	0.03012
65	16.58309	0.0046450	0.0150	0.0149	6.811455	0.02999
66	16.59150	0.0046079	0.0089	0.0088	6.810254	0.02979
67	16.60045	0.0045801	0.0058	0.0058	6.808974	0.02965
68	16.60946	0.0045739	0.0089	0.0088	6.807680	0.02961
69	16.60469	0.0045584	0.0058	0.0058	6.808370	0.02953
70	16.59580	0.0045461	0.0089	0.0089	6.809648	0.02947
71	16.59009	0.0045276	0.0089	0.0088	6.810474	0.02937
72	16.59009	0.0045183	0.0210	0.0209	6.810476	0.02932
73	16.59123	0.0044905	0.0149	0.0148	6.810318	0.02918
74	16.59708	0.0044719	0.0089	0.0088	6.809481	0.02908
75	16.60401	0.0044472	0.0210	0.0209	6.808490	0.02895
76	16.61047	0.0044318	0.0119	0.0118	6.807565	0.02887
77	16.53464	0.0096035	0.0424	0.0422	6.817325	0.05671
78	15.90187	0.6041180	0.1216	0.1209	6.743713	4.05018
79	15.25262	2.9702023	0.2526	0.2512	6.085440	23.11476
80	14.79909	3.0186048	0.3776	0.3755	6.116743	23.80384
81	14.49733	3.0398118	0.4812	0.4785	6.141122	24.17462
82	14.30393	3.0505864	0.5786	0.5754	6.157705	24.39026
83	14.18269	3.0550352	0.6914	0.6876	6.168891	24.50602
84	14.10631	3.0516268	0.7767	0.7725	6.178046	24.52420
85	14.06524	3.0299838	0.8072	0.8028	6.189681	24.35827
86	14.05248	3.0406581	0.8072	0.8028	6.187412	24.46102
87	14.08358	3.0514193	0.8072	0.8027	6.180502	24.53678
88	14.10499	3.0614428	0.8376	0.8330	6.174871	24.61207
89	14.08602	3.0713627	0.9077	0.9027	6.173508	24.71218
90	14.07187	3.0699485	0.9869	0.9815	6.175468	24.70865
91	14.06142	3.0635351	1.0266	1.0209	6.178733	24.65835
92	14.07093	3.0629233	1.0357	1.0300	6.177942	24.64685
93	14.12655	3.0673954	1.0388	1.0331	6.170608	24.65107
94	14.17855	3.0699597	1.0388	1.0331	6.164309	24.64067
95	14.21434	3.0730823	1.0327	1.0270	6.159524	24.64553
96	14.21981	3.0773705	1.0357	1.0300	6.157514	24.68000
97	14.17754	3.0815757	1.0388	1.0331	6.160507	24.74421
98	14.13445	3.0844337	1.0388	1.0331	6.164039	24.79714
99	14.10556	3.0873722	1.0358	1.0301	6.166061	24.84177
100	14.08827	3.0885750	1.0358	1.0301	6.167459	24.86357
101	14.07181	3.0881947	1.0358	1.0301	6.169306	24.87078
102	14.05348	3.0896309	1.0296	1.0239	6.170734	24.89536
103	14.03666	3.0910242	1.0297	1.0240	6.172020	24.91860
104	14.02378	3.0918899	1.0327	1.0270	6.173072	24.93462
105	14.01753	3.0923626	1.0358	1.0301	6.173564	24.94286
106	14.01628	3.0928784	1.0358	1.0301	6.173520	24.94826
107	14.01603	3.0929213	1.0327	1.0270	6.173531	24.94880
108	14.01366	3.0925346	1.0297	1.0240	6.173911	24.94690
109	14.00997	3.0917673	1.0388	1.0331	6.174556	24.94244
110	14.00560	3.0920067	1.0358	1.0301	6.174932	24.94740
111	14.00272	3.0933144	1.0388	1.0331	6.174789	24.96090
112	14.00297	3.0949723	1.0389	1.0331	6.174200	24.97551
113	14.00479	3.0943582	1.0358	1.0301	6.174219	24.96887
114	14.00460	3.0930995	1.0389	1.0332	6.174666	24.95778
115	14.00341	3.0938609	1.0358	1.0301	6.174531	24.96533
116	14.00235	3.0954759	1.0419	1.0361	6.174095	24.98040
117	14.00060	3.0962313	1.0358	1.0301	6.174021	24.98826
118	13.99916	3.0955926	1.0327	1.0271	6.174388	24.98350
119	13.99729	3.0954145	1.0358	1.0301	6.174644	24.98313
120	13.99617	3.0962007	1.0358	1.0301	6.174494	24.99086
121	13.99679	3.0975950	1.0358	1.0301	6.173956	25.00288
122	13.99923	3.0974169	1.0328	1.0271	6.173762	24.99971
123	13.99985	3.0947083	1.0420	1.0363	6.174616	24.97518
124	13.99785	3.0945364	1.0389	1.0331	6.174883	24.97494
125	13.99648	3.0957953	1.0419	1.0362	6.174599	24.98704
126	13.99866	3.0975029	1.0328	1.0271	6.173792	25.00084
127	14.00472	3.0976809	1.0359	1.0302	6.173099	24.99851
128	14.00685	3.0954881	1.0297	1.0241	6.173620	24.97760
129	14.00479	3.0958259	1.0389	1.0331	6.173721	24.98194
130	14.00366	3.0969438	1.0358	1.0301	6.173460	24.99263
131	14.00454	3.0979390	1.0420	1.0362	6.173031	25.00092
132	14.00560	3.0977977	1.0389	1.0331	6.172968	24.99898
133	14.00422	3.0966797	1.0450	1.0393	6.173491	24.98991
134	14.00016	3.0969746	1.0359	1.0302	6.173814	24.99517
135	13.99841	3.0983568	1.0389	1.0332	6.173528	25.00861
136	14.00135	3.0992968	1.0419	1.0362	6.172903	25.01508
137	14.00185	3.0962313	1.0389	1.0332	6.173890	24.98745
138	13.99698	3.0953838	1.0389	1.0332	6.174687	24.98306
139	13.99386	3.0968272	1.0358	1.0301	6.174523	24.99794
140	14.00016	3.0990572	1.0389	1.0331	6.173108	25.01372
141	14.01784	3.0996837	1.0359	1.0302	6.171050	25.00784
142	14.02590	3.0989156	1.0390	1.0332	6.170469	24.99578
143	14.01940	3.0968208	1.0359	1.0302	6.171857	24.98134
144	14.01172	3.0981785	1.0298	1.0241	6.172199	24.99841
145	14.01309	3.1013307	1.0420	1.0363	6.170987	25.02559
146	14.02528	3.1008880	1.0359	1.0302	6.169866	25.01375
147	14.03090	3.1008880	1.0328	1.0272	6.169279	25.01011
148	14.02653	3.1030024	1.0359	1.0302	6.169019	25.03177
149	14.02372	3.1078477	1.0328	1.0272	6.167671	25.07675
150	14.02784	3.1096808	1.0329	1.0272	6.166620	25.09039
151	14.03097	3.1108620	1.0359	1.0302	6.165894	25.09888
152	14.03241	3.1103575	1.0390	1.0333	6.165916	25.09345
153	14.03115	3.1098838	1.0450	1.0393	6.166206	25.09005
154	14.02972	3.1121297	1.0360	1.0303	6.165595	25.11099
155	14.03178	3.1144131	1.0329	1.0272	6.164607	25.12999
156	14.03516	3.1156258	1.0360	1.0303	6.163845	25.13859
157	14.03747	3.1149116	1.0360	1.0303	6.163846	25.13072
158	14.03784	3.1139760	1.0390	1.0333	6.164124	25.12215
159	14.03722	3.1165124	1.0421	1.0363	6.163331	25.14514
160	14.03928	3.1170727	1.0360	1.0303	6.162926	25.14879
161	14.04147	3.1173497	1.0391	1.0334	6.162605	25.14983
162	14.05029	3.1167770	1.0329	1.0272	6.161882	25.13899
163	14.06361	3.1164197	1.0391	1.0333	6.160617	25.12714
164	14.07193	3.1174911	1.0360	1.0303	6.159390	25.13126
165	14.08827	3.1181005	1.0390	1.0333	6.157487	25.12606
166	14.10662	3.1189133	1.0421	1.0363	6.155308	25.12136
167	14.11984	3.1192396	1.0390	1.0333	6.153826	25.11568
168	14.12717	3.1194490	1.0391	1.0333	6.152994	25.11277
169	14.13319	3.1202435	1.0360	1.0303	6.152102	25.11593
170	14.14090	3.1209272	1.0330	1.0274	6.151072	25.11700
171	14.14981	3.1216356	1.0360	1.0303	6.149911	25.11751
172	14.15966	3.1222332	1.0391	1.0333	6.148689	25.11642
173	14.16857	3.1228554	1.0390	1.0333	6.147557	25.11616
174	14.17635	3.1235085	1.0361	1.0304	6.146532	25.11691
175	14.18451	3.1240507	1.0330	1.0273	6.145504	25.11643
176	14.19455	3.1246053	1.0361	1.0304	6.144278	25.11483
177	14.20398	3.1250798	1.0331	1.0274	6.143144	25.11293
178	14.21070	3.1255297	1.0392	1.0335	6.142298	25.11256
179	14.21585	3.1260598	1.0421	1.0364	6.141588	25.11392
180	14.22289	3.1259118	1.0331	1.0274	6.140910	25.10805
181	14.23294	3.1266576	1.0361	1.0304	6.139620	25.10814
182	14.24112	3.1269041	1.0361	1.0304	6.138693	25.10503
183	14.24288	3.1272246	1.0361	1.0304	6.138404	25.10673
184	14.24357	3.1275206	1.0362	1.0305	6.138233	25.10890
185	14.24942	3.1275760	1.0362	1.0305	6.137610	25.10560
186	14.25697	3.1280014	1.0392	1.0335	6.136688	25.10448
187	14.26087	3.1283836	1.0300	1.0244	6.136158	25.10534
188	14.26213	3.1287104	1.0362	1.0305	6.135918	25.10742
189	14.26565	3.1290989	1.0269	1.0213	6.135425	25.10858
190	14.27068	3.1293640	1.0332	1.0275	6.134816	25.10767
191	14.27270	3.1295736	1.0361	1.0304	6.134538	25.10822
192	14.27194	3.1298080	1.0393	1.0335	6.134538	25.11079
193	14.27471	3.1294441	1.0393	1.0336	6.134374	25.10577
194	14.27931	3.1300176	1.0393	1.0335	6.133708	25.10787
195	14.28145	3.1301964	1.0362	1.0305	6.133427	25.10807
196	14.28025	3.1304370	1.0362	1.0305	6.133470	25.11098
197	14.28063	3.1305480	1.0362	1.0305	6.133394	25.11171
198	14.28460	3.1307330	1.0363	1.0306	6.132923	25.11078
199	14.29001	3.1309673	1.0363	1.0306	6.132287	25.10935
200	14.29549	3.1313250	1.0363	1.0306	6.131602	25.10897
201	14.30034	3.1316766	1.0363	1.0306	6.130985	25.10894
202	14.30254	3.1318308	1.0393	1.0336	6.130706	25.10888
203	14.30273	3.1315347	1.0424	1.0366	6.130785	25.10613
204	14.30519	3.1300112	1.0393	1.0336	6.131041	25.09106
205	14.30758	3.1307636	1.0424	1.0367	6.130543	25.09617
206	14.30727	3.1316518	1.0363	1.0306	6.130279	25.10424
207	14.30431	3.1317135	1.0363	1.0306	6.130563	25.10670
208	14.30229	3.1307020	1.0394	1.0337	6.131109	25.09905
209	14.30412	3.1305848	1.0333	1.0276	6.130960	25.09683
210	14.30651	3.1311769	1.0364	1.0307	6.130515	25.10052
211	14.30878	3.1315038	1.0455	1.0397	6.130172	25.10194
212	14.31117	3.1314606	1.0424	1.0367	6.129940	25.10001
213	14.31552	3.1314173	1.0425	1.0368	6.129506	25.09682
214	14.32037	3.1320095	1.0303	1.0246	6.128809	25.09892
215	14.32497	3.1326695	1.0303	1.0246	6.128115	25.10178
216	14.32768	3.1328422	1.0365	1.0308	6.127778	25.10156
217	14.32989	3.1325461	1.0425	1.0368	6.127649	25.09751
218	14.33367	3.1322499	1.0364	1.0307	6.127359	25.09244
219	14.33796	3.1323671	1.0395	1.0337	6.126878	25.09070
220	14.34200	3.1323979	1.0395	1.0338	6.126452	25.08837
221	14.34654	3.1326076	1.0457	1.0399	6.125915	25.08728
222	14.35038	3.1334713	1.0365	1.0308	6.125231	25.09244
223	14.35284	3.1338785	1.0395	1.0338	6.124842	25.09444
224	14.35272	3.1332615	1.0365	1.0308	6.125061	25.08907
225	14.35347	3.1321325	1.0365	1.0308	6.125359	25.07860
226	14.35436	3.1323978	1.0366	1.0309	6.125180	25.08038
227	14.35467	3.1331566	1.0426	1.0369	6.124894	25.08688
228	14.35442	3.1334404	1.0396	1.0339	6.124826	25.08955
229	14.35543	3.1336193	1.0457	1.0400	6.124662	25.09048
230	14.35789	3.1336810	1.0427	1.0370	6.124389	25.08943
231	14.36174	3.1329961	1.0366	1.0309	6.124221	25.08089
232	14.36565	3.1324594	1.0458	1.0400	6.123997	25.07362
233	14.36811	3.1336192	1.0457	1.0400	6.123358	25.08228
234	14.36906	3.1341869	1.0458	1.0400	6.123071	25.08669
235	14.36761	3.1332182	1.0427	1.0370	6.123543	25.07906
236	14.36698	3.1316265	1.0397	1.0340	6.124138	25.06541
237	14.36672	3.1316821	1.0519	1.0461	6.124145	25.06606
238	14.36590	3.1330269	1.0398	1.0341	6.123782	25.07847
239	14.36351	3.1334095	1.0428	1.0371	6.123901	25.08340
240	14.36281	3.1321016	1.0458	1.0401	6.124408	25.07229
241	14.36458	3.1309666	1.0397	1.0340	6.124604	25.06112
242	14.36590	3.1316821	1.0398	1.0340	6.124230	25.06659
243	14.36710	3.1329035	1.0398	1.0341	6.123700	25.07661
244	14.36723	3.1329035	1.0428	1.0371	6.123687	25.07653
245	14.36836	3.1316265	1.0399	1.0341	6.123995	25.06451
246	14.37335	3.1298871	1.0399	1.0342	6.124061	25.04592
247	14.38004	3.1301029	1.0429	1.0371	6.123300	25.04351
248	14.38888	3.1319533	1.0429	1.0372	6.121776	25.05415
249	14.39052	3.1322185	1.0429	1.0372	6.121518	25.05544
250	14.39166	3.1305469	1.0399	1.0342	6.121957	25.03994
251	14.39829	3.1277841	1.0430	1.0373	6.122194	25.01127
252	14.40498	3.1283205	1.0460	1.0403	6.121327	25.01169
253	14.42198	3.1300778	1.0430	1.0373	6.118995	25.01626
254	14.43039	3.1300099	1.0369	1.0312	6.118153	25.01025
255	14.43595	3.1277837	1.0430	1.0373	6.118320	24.98703
256	14.44879	3.1263595	1.0430	1.0373	6.117473	24.96622
257	14.46644	3.1277526	1.0430	1.0372	6.115198	24.96716
258	14.47929	3.1292447	1.0430	1.0373	6.113384	24.97206
259	14.49132	3.1286156	1.0430	1.0373	6.112357	24.95879
260	14.50525	3.1266240	1.0400	1.0343	6.111586	24.93232
261	14.52458	3.1258347	1.0431	1.0373	6.109863	24.91299
262	14.54030	3.1268887	1.0400	1.0343	6.107902	24.91220
263	14.55388	3.1280538	1.0431	1.0374	6.106126	24.91376
264	14.56910	3.1282263	1.0340	1.0283	6.104509	24.90554
265	14.58326	3.1270917	1.0401	1.0344	6.103432	24.88651
266	14.59793	3.1260312	1.0401	1.0344	6.102279	24.86783
267	14.60892	3.1264133	1.0371	1.0314	6.101028	24.86417
268	14.61438	3.1274983	1.0402	1.0345	6.100112	24.87021
269	14.61794	3.1278990	1.0432	1.0374	6.099616	24.87146
270	14.62087	3.1272455	1.0433	1.0375	6.099531	24.86385
271	14.62296	3.1262344	1.0432	1.0375	6.099649	24.85364
272	14.62443	3.1264317	1.0402	1.0345	6.099434	24.85444
273	14.62532	3.1274242	1.0402	1.0345	6.099017	24.86258
274	14.62627	3.1278435	1.0402	1.0345	6.098782	24.86566
275	14.62652	3.1276338	1.0433	1.0376	6.098825	24.86365
276	14.62684	3.1269618	1.0342	1.0285	6.099013	24.85755
277	14.62722	3.1267707	1.0464	1.0406	6.099037	24.85563
278	14.62805	3.1272762	1.0403	1.0346	6.098786	24.85954
279	14.62849	3.1278126	1.0434	1.0377	6.098564	24.86396
280	14.62862	3.1277201	1.0434	1.0377	6.098582	24.86307
281	14.62843	3.1270666	1.0403	1.0346	6.098816	24.85746
282	14.62856	3.1271591	1.0434	1.0376	6.098773	24.85819
283	14.62907	3.1281271	1.0434	1.0377	6.098402	24.86636
284	14.62843	3.1281702	1.0434	1.0376	6.098453	24.86714
285	14.62716	3.1268015	1.0465	1.0407	6.099033	24.85594
286	14.62652	3.1257412	1.0404	1.0347	6.099447	24.84704
287	14.62614	3.1266844	1.0405	1.0347	6.099176	24.85556
288	14.62449	3.1278743	1.0374	1.0317	6.098954	24.86706
289	14.62099	3.1274551	1.0404	1.0347	6.099449	24.86561
290	14.61826	3.1260557	1.0435	1.0377	6.100189	24.85507
291	14.61699	3.1255256	1.0405	1.0348	6.100494	24.85123
292	14.61527	3.1261790	1.0405	1.0348	6.100454	24.85806
293	14.61267	3.1272455	1.0466	1.0409	6.100370	24.86908
294	14.60873	3.1272148	1.0497	1.0440	6.100784	24.87133
295	14.60536	3.1262099	1.0436	1.0379	6.101459	24.86466
296	14.60435	3.1254024	1.0406	1.0348	6.101829	24.85821
297	14.60403	3.1260558	1.0497	1.0440	6.101646	24.86415
298	14.60282	3.1270977	1.0497	1.0439	6.101427	24.87407
299	14.59990	3.1269497	1.0437	1.0380	6.101775	24.87464
300	14.59768	3.1257045	1.0467	1.0410	6.102413	24.86512
301	14.59736	3.1251744	1.0407	1.0349	6.102619	24.86067
302	14.59698	3.1263271	1.0436	1.0379	6.102279	24.87104
303	14.59501	3.1270423	1.0437	1.0380	6.102245	24.87858
304	14.59196	3.1259696	1.0437	1.0380	6.102911	24.87110
305	14.59031	3.1245150	1.0437	1.0380	6.103559	24.85938
306	14.58967	3.1246629	1.0438	1.0381	6.103575	24.86108
307	14.58859	3.1260313	1.0407	1.0350	6.103235	24.87379
308	14.58555	3.1262718	1.0438	1.0381	6.103468	24.87785
309	14.58269	3.1249897	1.0468	1.0411	6.104183	24.86841
310	14.58237	3.1241268	1.0377	1.0320	6.104500	24.86104
311	14.58256	3.1249280	1.0408	1.0351	6.104217	24.86795
312	14.58161	3.1261485	1.0439	1.0382	6.103912	24.87928
313	14.57882	3.1258218	1.0409	1.0352	6.104306	24.87820
314	14.57729	3.1243364	1.0409	1.0352	6.104951	24.86612
315	14.57736	3.1239543	1.0469	1.0412	6.105071	24.86272
316	14.57717	3.1251068	1.0470	1.0413	6.104711	24.87297
317	14.57583	3.1255815	1.0409	1.0352	6.104691	24.87799
318	14.57399	3.1246323	1.0379	1.0321	6.105192	24.87083
319	14.57367	3.1241701	1.0409	1.0352	6.105377	24.86697
320	14.57450	3.1248973	1.0441	1.0383	6.105053	24.87283
321	14.57482	3.1259082	1.0502	1.0444	6.104687	24.88151
322	14.57386	3.1251747	1.0502	1.0444	6.105027	24.87567
323	14.57285	3.1233874	1.0441	1.0383	6.105720	24.86062
324	14.57323	3.1222844	1.0502	1.0444	6.106044	24.85068
325	14.57412	3.1237140	1.0472	1.0414	6.105482	24.86267
326	14.57348	3.1255507	1.0472	1.0414	6.104942	24.87922
327	14.56961	3.1247802	1.0411	1.0354	6.105592	24.87492
328	14.56726	3.1219333	1.0502	1.0445	6.106772	24.85140
329	14.56555	3.1200050	1.0442	1.0384	6.107583	24.83555
330	14.57006	3.1217854	1.0351	1.0294	6.106534	24.84832
331	14.58091	3.1232394	1.0473	1.0415	6.104942	24.85417
332	14.58929	3.1224629	1.0443	1.0385	6.104339	24.84200
333	14.59774	3.1204113	1.0442	1.0385	6.104148	24.81860
334	14.60860	3.1191423	1.0534	1.0476	6.103452	24.80054
335	14.61362	3.1203865	1.0413	1.0355	6.102529	24.80827
336	14.61438	3.1213228	1.0382	1.0325	6.102142	24.81600
337	14.61375	3.1211011	1.0412	1.0355	6.102281	24.81446
338	14.61616	3.1205651	1.0474	1.0416	6.102209	24.80822
339	14.62157	3.1203001	1.0443	1.0386	6.101743	24.80245
340	14.62722	3.1206019	1.0413	1.0356	6.101064	24.80150
341	14.63053	3.1207128	1.0444	1.0386	6.100689	24.80037
342	14.63167	3.1205341	1.0444	1.0387	6.100631	24.79808
343	14.63288	3.1200968	1.0414	1.0357	6.100651	24.79347
344	14.63492	3.1201830	1.0475	1.0417	6.100414	24.79293
345	14.63682	3.1208051	1.0414	1.0356	6.100014	24.79718
346	14.63727	3.1207743	1.0415	1.0358	6.099979	24.79662
347	14.63695	3.1201645	1.0476	1.0418	6.100212	24.79148
348	14.63759	3.1197333	1.0476	1.0418	6.100288	24.78729
349	14.63924	3.1204170	1.0475	1.0418	6.099894	24.79224
350	14.64007	3.1207866	1.0476	1.0418	6.099688	24.79495
351	14.63956	3.1201213	1.0446	1.0388	6.099959	24.78944
352	14.63975	3.1193822	1.0446	1.0388	6.100182	24.78284
353	14.64058	3.1199735	1.0507	1.0450	6.099903	24.78749
354	14.64127	3.1212178	1.0476	1.0419	6.099423	24.79796
355	14.63994	3.1208913	1.0477	1.0420	6.099667	24.79595
356	14.63816	3.1189079	1.0446	1.0389	6.100501	24.77969
357	14.63778	3.1175038	1.0417	1.0359	6.101001	24.76762
358	14.63689	3.1185815	1.0447	1.0389	6.100738	24.77763
359	14.63485	3.1203863	1.0386	1.0329	6.100354	24.79476
360	14.63142	3.1200660	1.0356	1.0299	6.100811	24.79413
361	14.62843	3.1184892	1.0417	1.0360	6.101635	24.78220
362	14.62640	3.1176024	1.0417	1.0360	6.102135	24.77571
363	14.62411	3.1180766	1.0448	1.0391	6.102214	24.78133
364	14.62188	3.1190374	1.0448	1.0391	6.102126	24.79117
