Scan Count	Temperature [ITS-90, deg C]	Conductivity [S/m]	Pressure, Strain Gauge [db]	Depth [salt water, m]	Oxygen Saturation, Weiss [ml/l]	Salinity, Practical [PSU]
1	12.91579	0.0019677	0.1229	0.1222	7.378105	0.01585
2	12.89507	0.0019801	0.1198	0.1192	7.381534	0.01591
3	12.88296	0.0019801	0.1198	0.1192	7.383542	0.01591
4	12.87624	0.0019893	0.1167	0.1161	7.384654	0.01596
5	12.86825	0.0019955	0.1167	0.1160	7.385977	0.01599
6	12.86353	0.0020048	0.1228	0.1221	7.386758	0.01604
7	12.85857	0.0019955	0.1228	0.1221	7.387584	0.01599
8	12.85397	0.0020048	0.1197	0.1191	7.388345	0.01604
9	12.84961	0.0020140	0.1227	0.1221	7.389065	0.01609
10	12.84266	0.0020140	0.1258	0.1251	7.390220	0.01609
11	12.83407	0.0020202	0.1259	0.1252	7.391645	0.01612
12	12.83141	0.0020140	0.1228	0.1221	7.392089	0.01609
13	12.83117	0.0020233	0.1228	0.1221	7.392127	0.01614
14	12.83141	0.0020387	0.1259	0.1252	7.392082	0.01622
15	12.83250	0.0020325	0.1259	0.1253	7.391903	0.01619
16	12.83347	0.0020294	0.1290	0.1283	7.391743	0.01617
17	12.83214	0.0020325	0.1259	0.1252	7.391963	0.01619
18	12.81455	0.0020325	0.1199	0.1192	7.394887	0.01619
19	12.77831	0.0020387	0.1289	0.1282	7.400915	0.01622
20	12.74771	0.0020418	0.1228	0.1221	7.406011	0.01623
21	12.72462	0.0020387	0.1229	0.1223	7.409863	0.01621
22	12.71172	0.0020418	0.1259	0.1252	7.412015	0.01623
23	12.69569	0.0020418	0.1290	0.1283	7.414691	0.01622
24	12.67323	0.0020449	0.1290	0.1283	7.418444	0.01624
25	12.65626	0.0020418	0.1290	0.1282	7.421283	0.01622
26	12.63178	0.0020449	0.1229	0.1222	7.425379	0.01623
27	12.60792	0.0020510	0.1259	0.1252	7.429376	0.01626
28	12.59206	0.0020510	0.1320	0.1313	7.432035	0.01626
29	12.58365	0.0020541	0.1259	0.1253	7.433445	0.01628
30	12.57963	0.0020510	0.1230	0.1223	7.434121	0.01626
31	12.55784	0.0028226	0.1352	0.1344	7.437578	0.02059
32	11.59484	0.0093980	0.1899	0.1889	7.600526	0.06083
33	9.85084	0.1967115	0.2173	0.2161	7.846556	1.44231
34	8.61460	0.4167388	0.2417	0.2404	7.985326	3.30585
35	7.63076	0.7883241	0.3147	0.3130	7.999509	6.72126
36	6.90312	0.8012639	0.3727	0.3706	8.129140	6.98508
37	6.43415	0.8366356	0.3879	0.3857	8.200683	7.41784
38	6.10361	0.8616853	0.3970	0.3948	8.251404	7.73167
39	5.86671	0.8828836	0.4183	0.4160	8.286218	7.99219
40	5.70864	0.8629217	0.4335	0.4311	8.327688	7.83459
41	5.62288	0.8555200	0.4396	0.4372	8.348511	7.78214
42	5.66046	0.8573472	0.4457	0.4433	8.340133	7.79131
43	5.77231	0.8762655	0.4488	0.4463	8.308121	7.94995
44	5.86429	0.8811861	0.4518	0.4493	8.287587	7.97623
45	5.89701	0.8840881	0.4549	0.4524	8.279696	7.99674
46	5.83260	0.9006386	0.4457	0.4433	8.283455	8.17351
47	5.75315	0.9213037	0.4458	0.4434	8.287899	8.39530
48	5.68572	0.9311014	0.4579	0.4554	8.295758	8.50846
49	5.64506	0.9165767	0.4579	0.4554	8.311450	8.37577
50	5.66277	0.9002904	0.4549	0.4524	8.316715	8.21137
51	5.67485	0.9393447	0.4884	0.4857	8.293458	8.59237
52	5.67712	0.9586103	0.5736	0.5705	8.282701	8.78171
53	5.64717	0.9516249	0.6741	0.6704	8.292245	8.72054
54	5.64738	0.9303776	0.7624	0.7582	8.303603	8.51099
55	5.64768	0.9166063	0.8384	0.8338	8.310927	8.37535
56	5.68064	0.9011180	0.8780	0.8732	8.312786	8.21507
57	5.92677	0.9075047	0.8750	0.8702	8.261593	8.21760
58	6.17868	0.9301813	0.8780	0.8732	8.201391	8.37638
59	6.32365	0.9380490	0.8628	0.8581	8.169782	8.41675
60	6.39635	0.9399450	0.8111	0.8066	8.155065	8.41710
61	6.42390	0.9364204	0.7047	0.7008	8.151670	8.37636
62	6.33939	0.9535596	0.5982	0.5949	8.158818	8.56280
63	6.18851	0.9951168	0.4703	0.4677	8.165776	9.00540
64	6.03725	0.9747562	0.3546	0.3527	8.205056	8.84637
65	5.97769	0.9171832	0.2573	0.2559	8.246676	8.29956
66	6.16009	0.8948655	0.1508	0.1500	8.223279	8.03906
67	6.47122	0.6750797	0.1416	0.1408	8.275379	5.88550
68	6.53041	0.1520910	0.1387	0.1379	8.518860	1.20824
69	6.59200	0.1258727	0.1327	0.1319	8.517906	0.98876
70	6.64445	0.1152506	0.1357	0.1349	8.511650	0.90010
71	6.68135	0.1017824	0.1325	0.1318	8.509931	0.78943
72	6.72102	0.0912793	0.1355	0.1348	8.506249	0.70364
73	6.77534	0.0895351	0.1325	0.1318	8.495558	0.68852
74	6.82477	0.0847076	0.1357	0.1350	8.487278	0.64886
75	6.86691	0.0759674	0.1296	0.1289	8.482251	0.57845
76	6.90639	0.0954638	0.1296	0.1289	8.465385	0.73348
77	6.93750	0.0854255	0.1296	0.1289	8.463284	0.65249
78	6.96983	0.0881162	0.1327	0.1319	8.455335	0.67335
79	7.00515	0.0825202	0.1356	0.1349	8.450396	0.62812
80	7.04352	0.0769667	0.1296	0.1289	8.444795	0.58344
81	7.08322	0.0688353	0.1265	0.1258	8.440016	0.51874
82	7.12208	0.0675375	0.1206	0.1199	8.432471	0.50799
83	7.16056	0.0616148	0.1327	0.1320	8.426986	0.46119
84	7.20053	0.0588605	0.1267	0.1260	8.419839	0.43926
85	7.24263	0.0601469	0.1266	0.1259	8.410550	0.44872
86	7.28645	0.0612026	0.1298	0.1291	8.401020	0.45635
87	7.33153	0.0585026	0.1267	0.1260	8.392830	0.43487
88	7.37665	0.0572773	0.1266	0.1260	8.384022	0.42487
89	7.42072	0.0542596	0.1267	0.1260	8.376193	0.40113
90	7.46268	0.0510157	0.1328	0.1320	8.368897	0.37581
91	7.50164	0.0477764	0.1299	0.1291	8.362222	0.35069
92	7.53963	0.0442462	0.1269	0.1262	8.355867	0.32351
93	7.57777	0.0436169	0.1237	0.1231	8.348301	0.31840
94	7.61562	0.0425948	0.1268	0.1261	8.340963	0.31035
95	7.65388	0.0408536	0.1329	0.1322	8.333845	0.29690
96	7.68948	0.0424816	0.1239	0.1232	8.325914	0.30886
97	7.71765	0.0438183	0.1269	0.1262	8.319627	0.31869
98	7.74627	0.0417083	0.1268	0.1261	8.314651	0.30256
99	7.77660	0.0422835	0.1329	0.1322	8.308248	0.30663
100	7.80744	0.0425508	0.1269	0.1262	8.301876	0.30837
101	7.84551	0.0407404	0.1239	0.1232	8.294878	0.29449
102	7.89466	0.0390854	0.1178	0.1172	8.285582	0.28173
103	7.94355	0.0384106	0.1300	0.1293	8.275965	0.27633
104	7.98015	0.0391168	0.1240	0.1233	8.268297	0.28131
105	8.00613	0.0379367	0.1210	0.1204	8.263528	0.27234
106	8.02963	0.0378050	0.1301	0.1294	8.258849	0.27119
107	8.05239	0.0368953	0.1241	0.1234	8.254628	0.26428
108	8.07394	0.0356005	0.1301	0.1294	8.250805	0.25455
109	8.09427	0.0347638	0.1239	0.1233	8.247049	0.24824
110	8.11311	0.0339212	0.1241	0.1235	8.243596	0.24190
111	8.13469	0.0336143	0.1301	0.1294	8.239387	0.23950
112	8.13630	0.3749608	0.1911	0.1900	8.094211	2.99466
113	7.53774	0.7355761	0.2976	0.2960	8.041758	6.25634
114	6.75158	0.7916352	0.4742	0.4716	8.162704	6.92541
115	6.17649	0.8133786	0.6416	0.6381	8.262335	7.25107
116	5.79916	0.8323267	0.8060	0.8016	8.326160	7.51606
117	5.56912	0.8562884	0.9460	0.9408	8.358713	7.80205
118	5.44122	0.8371218	1.0038	0.9983	8.394418	7.64349
119	5.39104	0.8344288	1.0069	1.0013	8.405884	7.62847
120	5.40469	0.8382046	1.0099	1.0044	8.401111	7.66247
121	5.43246	0.8457509	1.0130	1.0074	8.391491	7.73025
122	5.45059	0.8517067	1.0070	1.0015	8.384664	7.78460
123	5.45635	0.8557696	1.0009	0.9954	8.381323	7.82319
124	5.45760	0.8603357	1.0071	1.0015	8.378604	7.86780
125	5.43907	0.8631721	1.0071	1.0015	8.380743	7.90007
126	5.41230	0.8653862	1.0101	1.0046	8.384854	7.92819
127	5.39769	0.8675723	1.0041	0.9986	8.386567	7.95320
128	5.38959	0.8722569	0.9980	0.9925	8.385629	8.00134
129	5.37824	0.8972722	1.0132	1.0077	8.374270	8.25129
130	5.36890	0.9286772	1.0102	1.0047	8.359003	8.56495
131	5.42621	0.9623815	1.0102	1.0046	8.329417	8.88497
132	5.56285	1.0654784	1.0073	1.0017	8.247123	9.87491
133	5.71443	1.2066907	1.0134	1.0078	8.142487	11.24459
134	5.87288	1.3443008	1.0043	0.9988	8.039916	12.57887
135	6.03959	1.5096852	1.0074	1.0019	7.922692	14.19439
136	6.18642	1.6447663	1.0074	1.0018	7.826524	15.51131
137	6.31511	1.7133722	1.0134	1.0078	7.769225	16.15471
138	6.41519	1.7686920	1.0104	1.0049	7.724087	16.67392
139	6.49570	1.8326654	1.0136	1.0080	7.678053	17.29069
140	6.57955	1.9234157	1.0074	1.0019	7.618152	18.18101
141	6.66950	2.0077694	1.0015	0.9960	7.561073	19.00240
142	6.74218	2.0747269	1.0105	1.0050	7.515937	19.65353
143	6.80848	2.1172001	1.0137	1.0081	7.484419	20.05468
144	6.86774	2.1402367	1.0137	1.0081	7.463899	20.25830
145	6.92168	2.1502398	1.0076	1.0021	7.450786	20.32992
146	6.96978	2.1777087	1.0016	0.9961	7.429883	20.58524
147	7.01009	2.2299085	0.9986	0.9931	7.397926	21.10079
148	7.04508	2.2797216	1.0047	0.9991	7.368070	21.59523
149	7.06782	2.3126437	1.0108	1.0053	7.348460	21.92245
150	7.08348	2.3287563	1.0049	0.9993	7.338226	22.07975
151	7.10129	2.3255504	1.0079	1.0023	7.337242	22.03510
152	7.11458	2.3424933	1.0109	1.0054	7.326966	22.20245
153	7.12328	2.3740094	1.0080	1.0025	7.310176	22.52427
154	7.14309	2.3993798	1.0171	1.0115	7.294859	22.77515
155	7.16880	2.4147247	1.0111	1.0055	7.283667	22.91783
156	7.19244	2.4212057	1.0111	1.0055	7.277143	22.96957
157	7.21473	2.4235975	1.0082	1.0026	7.272823	22.97963
158	7.23558	2.4499305	1.0143	1.0087	7.256996	23.23958
159	7.25157	2.4832205	1.0112	1.0057	7.238484	23.57533
160	7.26286	2.5066086	1.0113	1.0057	7.225493	23.81133
161	7.26773	2.5179334	1.0113	1.0057	7.219294	23.92608
162	7.27029	2.5237309	1.0113	1.0057	7.216112	23.98478
163	7.26893	2.5326299	1.0175	1.0119	7.211959	24.07859
164	7.26647	2.5391189	1.0114	1.0059	7.209133	24.14804
165	7.26809	2.5351118	1.0145	1.0089	7.210864	24.10508
166	7.27170	2.5258335	1.0115	1.0059	7.214891	24.00574
167	7.27568	2.5224718	1.0114	1.0058	7.215981	23.96792
168	7.27991	2.5276744	1.0115	1.0060	7.212860	24.01925
169	7.28399	2.5339534	1.0116	1.0061	7.209237	24.08193
170	7.28849	2.5356880	1.0087	1.0031	7.207772	24.09690
171	7.29289	2.5474997	1.0087	1.0031	7.201414	24.21710
172	7.29666	2.5697885	1.0086	1.0031	7.190048	24.44723
173	7.29943	2.5879721	1.0118	1.0063	7.180822	24.63534
174	7.30105	2.5971071	1.0150	1.0094	7.176158	24.72973
175	7.30074	2.5932630	1.0088	1.0033	7.178070	24.68975
176	7.29483	2.5898350	1.0119	1.0063	7.180543	24.65810
177	7.27803	2.5928030	1.0120	1.0065	7.181387	24.70112
178	7.25753	2.5941552	1.0120	1.0065	7.183522	24.72991
179	7.24629	2.6022612	1.0120	1.0065	7.181100	24.82288
180	7.24049	2.5889097	1.0090	1.0034	7.188404	24.68713
181	7.23270	2.5773279	1.0122	1.0066	7.195122	24.57136
182	7.22628	2.5757438	1.0092	1.0037	7.196775	24.55933
183	7.22445	2.5800724	1.0122	1.0067	7.194911	24.60597
184	7.22445	2.5705920	1.0123	1.0068	7.199543	24.50668
185	7.22090	2.5659196	1.0154	1.0099	7.202313	24.46027
186	7.21755	2.5596581	1.0093	1.0037	7.205832	24.39708
187	7.22027	2.5635816	1.0124	1.0068	7.203542	24.43623
188	7.22669	2.5702708	1.0155	1.0099	7.199392	24.50172
189	7.22962	2.5670085	1.0095	1.0039	7.200584	24.46550
190	7.23067	2.5600302	1.0095	1.0040	7.203850	24.39173
191	7.23479	2.5613932	1.0126	1.0070	7.202617	24.40308
192	7.23960	2.5585300	1.0064	1.0009	7.203356	24.36974
193	7.24180	2.5622466	1.0126	1.0070	7.201240	24.40707
194	7.24091	2.5603795	1.0096	1.0040	7.202273	24.38817
195	7.24148	2.5592342	1.0159	1.0103	7.202754	24.37578
196	7.24446	2.5550841	1.0189	1.0133	7.204371	24.33028
197	7.24545	2.5544604	1.0190	1.0134	7.204539	24.32306
198	7.24457	2.5567553	1.0159	1.0103	7.203540	24.34768
199	7.24404	2.5528127	1.0190	1.0134	7.205537	24.30682
200	7.24551	2.5532989	1.0191	1.0135	7.205098	24.31088
201	7.24619	2.5526811	1.0100	1.0044	7.205306	24.30394
202	7.24478	2.5543002	1.0131	1.0075	7.204710	24.32186
203	7.24263	2.5501816	1.0192	1.0136	7.207015	24.28030
204	7.24373	2.5511653	1.0192	1.0136	7.206384	24.28982
205	7.24718	2.5478145	1.0133	1.0077	7.207546	24.25237
206	7.25136	2.5499128	1.0164	1.0108	7.205946	24.27137
207	7.25089	2.5536135	1.0104	1.0049	7.204205	24.31039
208	7.25230	2.5523435	1.0256	1.0199	7.204631	24.29612
209	7.25638	2.5517772	1.0196	1.0140	7.204347	24.28734
210	7.26229	2.5482946	1.0166	1.0110	7.205233	24.24681
211	7.26496	2.5493066	1.0195	1.0139	7.204373	24.25551
212	7.26543	2.5527210	1.0136	1.0081	7.202643	24.29086
213	7.27097	2.5523319	1.0166	1.0111	7.202072	24.28290
214	7.27651	2.5482945	1.0106	1.0051	7.203278	24.23685
215	7.27746	2.5485346	1.0106	1.0051	7.203031	24.23870
216	7.27646	2.5500613	1.0107	1.0051	7.202424	24.25534
217	7.27939	2.5517198	1.0078	1.0022	7.201213	24.27061
218	7.28347	2.5472311	1.0139	1.0083	7.202840	24.22088
219	7.28541	2.5453222	1.0170	1.0114	7.203504	24.19959
220	7.28426	2.5469510	1.0170	1.0114	7.202868	24.21740
221	7.28551	2.5532128	1.0201	1.0145	7.199645	24.28191
222	7.28938	2.5524118	1.0081	1.0025	7.199504	24.27084
223	7.29263	2.5447678	1.0203	1.0147	7.202781	24.18876
224	7.29106	2.5467281	1.0142	1.0086	7.202042	24.21032
225	7.28781	2.5507360	1.0113	1.0057	7.200536	24.25444
226	7.28876	2.5542769	1.0174	1.0118	7.198682	24.29075
227	7.28923	2.5482658	1.0174	1.0118	7.201545	24.22765
228	7.28253	2.5467281	1.0115	1.0059	7.203214	24.21628
229	7.26940	2.5496553	1.0146	1.0090	7.203592	24.25604
230	7.26386	2.5562973	1.0207	1.0151	7.201115	24.32933
231	7.26496	2.5566464	1.0238	1.0182	7.200794	24.33221
232	7.26454	2.5480030	1.0178	1.0122	7.205066	24.24218
233	7.25581	2.5480031	1.0209	1.0153	7.206267	24.24830
234	7.24514	2.5536365	1.0179	1.0123	7.204984	24.31466
235	7.24519	2.5592571	1.0179	1.0123	7.202233	24.37340
236	7.24645	2.5545176	1.0119	1.0064	7.204374	24.32296
237	7.24018	2.5494326	1.0212	1.0156	7.207719	24.27419
238	7.22424	2.5517489	1.0212	1.0156	7.208780	24.30960
239	7.21844	2.5583240	1.0242	1.0186	7.206363	24.38248
240	7.22387	2.5602994	1.0213	1.0156	7.204651	24.39933
241	7.22403	2.5556852	1.0182	1.0126	7.206885	24.35093
242	7.20716	2.5535567	1.0184	1.0128	7.210245	24.34053
243	7.18054	2.5562464	1.0184	1.0128	7.212591	24.38745
244	7.16535	2.5580039	1.0154	1.0098	7.213819	24.41659
245	7.15774	2.5555885	1.0154	1.0099	7.216052	24.39664
246	7.14220	2.5551022	1.0155	1.0099	7.218431	24.40251
247	7.12307	2.5574203	1.0186	1.0130	7.219928	24.44035
248	7.11447	2.5567965	1.0187	1.0131	7.221419	24.43989
249	7.11025	2.5548907	1.0218	1.0162	7.222938	24.42287
250	7.09957	2.5561384	1.0158	1.0102	7.223797	24.44352
251	7.09447	2.5599798	1.0279	1.0222	7.222610	24.48748
252	7.10588	2.5626430	1.0281	1.0224	7.219728	24.50737
253	7.12244	2.5625169	1.0281	1.0225	7.217509	24.49429
254	7.13219	2.5597905	1.0281	1.0224	7.217507	24.45877
255	7.13130	2.5577408	1.0252	1.0196	7.218636	24.43789
256	7.12255	2.5580271	1.0252	1.0196	7.219702	24.44709
257	7.11536	2.5609933	1.0192	1.0136	7.219234	24.48332
258	7.11197	2.5627289	1.0193	1.0137	7.218847	24.50395
259	7.10546	2.5601401	1.0193	1.0137	7.221017	24.48138
260	7.08770	2.5504631	1.0224	1.0168	7.228229	24.39232
261	7.05866	2.5480333	1.0255	1.0199	7.233441	24.38731
262	7.03567	2.5659096	1.0225	1.0169	7.227793	24.59165
263	7.03936	2.5708287	1.0256	1.0200	7.224855	24.64080
264	7.05127	2.5568370	1.0196	1.0140	7.230118	24.48510
265	7.02839	2.5421705	1.0227	1.0171	7.240525	24.34705
266	6.97617	2.5460162	1.0258	1.0201	7.245860	24.42446
267	6.94430	2.5623637	1.0259	1.0203	7.242166	24.61950
268	6.95271	2.5539078	1.0169	1.0113	7.245198	24.52431
269	6.95748	2.5246508	1.0229	1.0173	7.259053	24.21265
270	6.93351	2.5186136	1.0199	1.0143	7.265394	24.16591
271	6.91567	2.5487491	1.0140	1.0084	7.252896	24.49625
272	6.93553	2.5649878	1.0171	1.0115	7.242076	24.65347
273	6.96111	2.5312863	1.0172	1.0116	7.255255	24.27997
274	6.94995	2.5066111	1.0232	1.0176	7.269059	24.02806
275	6.91219	2.5329751	1.0142	1.0086	7.261224	24.33229
276	6.90188	2.5734627	1.0234	1.0178	7.242516	24.76715
277	6.91432	2.5542801	1.0297	1.0240	7.250333	24.55558
278	6.90634	2.5006975	1.0267	1.0210	7.278107	23.99623
279	6.87431	2.5006183	1.0236	1.0180	7.282637	24.01773
280	6.86287	2.5500247	1.0207	1.0151	7.259595	24.54734
281	6.88799	2.5584871	1.0208	1.0151	7.251891	24.61884
282	6.90421	2.5042590	1.0176	1.0120	7.276631	24.03522
283	6.88555	2.4720902	1.0269	1.0213	7.295284	23.70949
284	6.86856	2.5147666	1.0270	1.0213	7.276385	24.17096
285	6.88188	2.5504248	1.0241	1.0184	7.256754	24.53801
286	6.90354	2.5270448	1.0302	1.0245	7.265382	24.27585
287	6.91007	2.4878527	1.0302	1.0246	7.283979	23.85841
288	6.90359	2.5004079	1.0303	1.0246	7.278636	23.99509
289	6.91256	2.5427712	1.0212	1.0156	7.256301	24.43537
290	6.94855	2.5393157	1.0213	1.0157	7.253016	24.37342
291	6.97279	2.4834550	1.0213	1.0157	7.277355	23.76882
292	6.96677	2.4597037	1.0245	1.0189	7.289992	23.52365
293	6.95291	2.4981478	1.0246	1.0190	7.272849	23.93698
294	6.95701	2.5331859	1.0216	1.0159	7.254882	24.30286
295	6.97238	2.5202133	1.0247	1.0190	7.259178	24.15549
296	6.97118	2.4883680	1.0279	1.0222	7.275143	23.82153
297	6.94741	2.4822940	1.0309	1.0253	7.281496	23.77413
298	6.92428	2.5109890	1.0250	1.0193	7.270474	24.09208
299	6.92122	2.5249929	1.0250	1.0193	7.263937	24.24176
300	6.92739	2.4947429	1.0189	1.0133	7.278118	23.91890
301	6.92013	2.4708797	1.0251	1.0195	7.291013	23.67297
302	6.90063	2.4884196	1.0221	1.0164	7.285022	23.87092
303	6.89177	2.5105798	1.0221	1.0165	7.275225	24.11053
304	6.89825	2.5033500	1.0283	1.0226	7.277919	24.02981
305	6.90530	2.4823453	1.0223	1.0167	7.287392	23.80377
306	6.90333	2.4729893	1.0254	1.0198	7.292330	23.70670
307	6.89716	2.4844356	1.0224	1.0168	7.287495	23.83139
308	6.89804	2.5063217	1.0255	1.0199	7.276468	24.06126
309	6.90955	2.5186537	1.0287	1.0230	7.268719	24.18315
310	6.92407	2.5046792	1.0227	1.0171	7.273641	24.02579
311	6.93066	2.4744542	1.0258	1.0202	7.287751	23.70329
312	6.92350	2.4630300	1.0258	1.0202	7.294445	23.58816
313	6.91090	2.4793271	1.0229	1.0173	7.288107	23.76815
314	6.90701	2.4933418	1.0230	1.0174	7.281675	23.91831
315	6.91297	2.4720390	1.0168	1.0113	7.291444	23.69008
316	6.91577	2.4543937	1.0232	1.0175	7.299836	23.50273
317	6.90981	2.4716545	1.0293	1.0236	7.292081	23.68821
318	6.90779	2.5067138	1.0232	1.0175	7.274908	24.05858
319	6.91821	2.5197411	1.0264	1.0207	7.266969	24.18853
320	6.93242	2.4997604	1.0234	1.0178	7.274918	23.96820
321	6.93813	2.4650296	1.0295	1.0239	7.291386	23.59915
322	6.93361	2.4661597	1.0265	1.0208	7.291461	23.61411
323	6.92936	2.4991699	1.0265	1.0209	7.275640	23.96411
324	6.93615	2.4973136	1.0236	1.0180	7.275611	23.93985
325	6.94928	2.4633404	1.0268	1.0212	7.290653	23.57377
326	6.95354	2.4573557	1.0299	1.0242	7.293027	23.50805
327	6.95203	2.4695451	1.0238	1.0182	7.287181	23.63703
328	6.95566	2.4692907	1.0268	1.0212	7.286796	23.63187
329	6.96210	2.4712130	1.0302	1.0245	7.284935	23.64763
330	6.96869	2.4778039	1.0271	1.0214	7.280735	23.71230
331	6.97492	2.4720385	1.0271	1.0215	7.282721	23.64750
332	6.98017	2.4692113	1.0241	1.0185	7.283385	23.61424
333	6.98385	2.4811837	1.0273	1.0217	7.276928	23.73735
334	6.98822	2.4932390	1.0304	1.0248	7.270340	23.86091
335	6.99580	2.4843555	1.0274	1.0218	7.273679	23.76241
336	7.00573	2.4532198	1.0244	1.0188	7.287713	23.42915
337	7.01118	2.4391112	1.0307	1.0250	7.293934	23.27773
338	7.01259	2.4639556	1.0277	1.0221	7.281428	23.53696
339	7.01721	2.5036615	1.0246	1.0190	7.261123	23.95025
340	7.02662	2.4887814	1.0278	1.0222	7.267169	23.78759
341	7.03161	2.4404507	1.0250	1.0193	7.290381	23.27796
342	7.02990	2.4470295	1.0250	1.0193	7.287368	23.34795
343	7.02797	2.5002025	1.0250	1.0194	7.261331	23.90648
344	7.02787	2.5053603	1.0221	1.0164	7.258794	23.96068
345	7.02589	2.4498533	1.0252	1.0196	7.286535	23.38022
346	7.02246	2.4250088	1.0252	1.0196	7.299323	23.12263
347	7.01851	2.4619053	1.0283	1.0227	7.281609	23.51144
348	7.01711	2.5041046	1.0223	1.0167	7.260918	23.95497
349	7.01867	2.4683914	1.0224	1.0168	7.278375	23.57929
350	7.02064	2.4133463	1.0225	1.0169	7.305358	23.00195
351	7.01794	2.4303303	1.0256	1.0199	7.297327	23.18131
352	7.01794	2.4994701	1.0287	1.0230	7.263095	23.90574
353	7.02969	2.5066616	1.0287	1.0230	7.257897	23.97307
354	7.03998	2.4451982	1.0288	1.0232	7.286850	23.32197
355	7.03759	2.4164310	1.0259	1.0203	7.301423	23.02287
356	7.03270	2.4697254	1.0260	1.0203	7.275742	23.58367
357	7.03260	2.5092993	1.0322	1.0265	7.256187	23.99874
358	7.03156	2.4597822	1.0261	1.0205	7.280822	23.48031
359	7.02631	2.4117707	1.0232	1.0176	7.305333	22.98171
360	7.02298	2.4292173	1.0323	1.0266	7.297165	23.16628
361	7.02231	2.4791677	1.0264	1.0207	7.272530	23.68975
362	7.02116	2.4880332	1.0233	1.0176	7.268303	23.78351
363	7.01955	2.4484779	1.0295	1.0238	7.288111	23.37011
364	7.01887	2.4317696	1.0296	1.0239	7.296482	23.19573
365	7.01939	2.4767225	1.0266	1.0210	7.274149	23.66612
366	7.02620	2.5002763	1.0267	1.0211	7.261541	23.90848
367	7.04030	2.4551826	1.0267	1.0211	7.281867	23.42622
368	7.04753	2.4191187	1.0237	1.0181	7.298683	23.04431
369	7.04831	2.4537553	1.0239	1.0183	7.281444	23.40585
370	7.05429	2.5025932	1.0300	1.0243	7.256475	23.91332
371	7.06750	2.4752282	1.0180	1.0124	7.268137	23.61750
