Scan Count	Temperature [ITS-90, deg C]	Conductivity [S/m]	Pressure, Strain Gauge [db]	Depth [salt water, m]	Oxygen Saturation, Weiss [ml/l]	Salinity, Practical [PSU]
1	15.64488	0.0024310	0.0228	0.0227	6.949263	0.01859
2	15.64475	0.0024002	0.0258	0.0257	6.949289	0.01843
3	15.64390	0.0023786	0.0228	0.0226	6.949420	0.01832
4	15.64252	0.0023539	0.0227	0.0226	6.949630	0.01820
5	15.64154	0.0023323	0.0258	0.0256	6.949781	0.01809
6	15.64141	0.0023076	0.0227	0.0225	6.949806	0.01796
7	15.63853	0.0022860	0.0227	0.0225	6.950240	0.01785
8	15.63807	0.0022737	0.0257	0.0256	6.950311	0.01779
9	15.63761	0.0022428	0.0257	0.0256	6.950386	0.01763
10	15.63709	0.0022243	0.0257	0.0255	6.950468	0.01754
11	15.63709	0.0022058	0.0226	0.0225	6.950472	0.01744
12	15.63689	0.0021842	0.0227	0.0226	6.950505	0.01734
13	15.63539	0.0021626	0.0227	0.0225	6.950734	0.01723
14	15.63428	0.0021379	0.0227	0.0225	6.950905	0.01710
15	15.63467	0.0021225	0.0257	0.0255	6.950850	0.01702
16	15.63460	0.0021071	0.0227	0.0226	6.950863	0.01695
17	15.63506	0.0020917	0.0257	0.0256	6.950798	0.01687
18	15.63559	0.0020793	0.0227	0.0226	6.950723	0.01681
19	15.63624	0.0020732	0.0257	0.0256	6.950627	0.01678
20	15.63676	0.0020732	0.0257	0.0256	6.950549	0.01678
21	15.63670	0.0020824	0.0227	0.0225	6.950556	0.01682
22	15.63729	0.0021071	0.0258	0.0256	6.950463	0.01695
23	15.63729	0.0021194	0.0227	0.0226	6.950461	0.01701
24	15.63702	0.0021349	0.0227	0.0226	6.950497	0.01709
25	15.63820	0.0021379	0.0257	0.0256	6.950320	0.01710
26	15.63886	0.0021133	0.0197	0.0196	6.950228	0.01698
27	15.63814	0.0020855	0.0258	0.0257	6.950341	0.01684
28	15.63788	0.0020670	0.0227	0.0225	6.950384	0.01675
29	15.63801	0.0020732	0.0258	0.0256	6.950363	0.01678
30	15.63820	0.0020670	0.0228	0.0226	6.950335	0.01675
31	15.63899	0.0020732	0.0228	0.0226	6.950217	0.01678
32	15.63931	0.0020701	0.0258	0.0257	6.950169	0.01676
33	15.63945	0.0021163	0.0258	0.0256	6.950140	0.01699
34	15.63624	0.0028106	0.0288	0.0287	6.950467	0.02054
35	15.63107	0.0037737	0.0228	0.0226	6.951024	0.02558
36	15.62760	0.0035422	0.0258	0.0257	6.951593	0.02436
37	15.61779	0.0029927	0.0289	0.0287	6.953177	0.02148
38	15.61112	0.0027674	0.0258	0.0257	6.954222	0.02031
39	15.59609	0.0025545	0.0259	0.0257	6.956512	0.01922
40	15.58753	0.0023570	0.0258	0.0257	6.957833	0.01821
41	15.57734	0.0021780	0.0259	0.0258	6.959393	0.01730
42	15.57721	0.0020762	0.0259	0.0257	6.959435	0.01678
43	15.58446	0.0019899	0.0289	0.0288	6.958370	0.01635
44	15.58975	0.0019282	0.0259	0.0257	6.957593	0.01604
45	15.59459	0.0018881	0.0259	0.0257	6.956879	0.01584
46	15.59825	0.0018480	0.0259	0.0257	6.956341	0.01564
47	15.59883	0.0018140	0.0259	0.0258	6.956261	0.01548
48	15.59433	0.0017955	0.0259	0.0258	6.956938	0.01538
49	15.57753	0.0018418	0.0259	0.0258	6.959436	0.01561
50	15.57760	0.0017215	0.0290	0.0288	6.959451	0.01501
51	15.55305	0.0016598	0.0229	0.0228	6.963133	0.01471
52	12.98181	2.6087249	0.4003	0.3981	6.456391	21.25105
53	9.86012	3.1805961	0.7929	0.7886	6.594067	28.76175
54	9.48832	3.2301791	0.7899	0.7856	6.615370	29.56214
55	9.47427	3.2681125	0.7960	0.7916	6.600756	29.95844
56	9.54560	3.2770128	0.8020	0.7976	6.588926	29.98912
57	9.48771	3.2645708	0.7990	0.7946	6.600752	29.91128
58	9.43372	3.2613947	0.7960	0.7916	6.608211	29.92410
59	9.39563	3.2573179	0.7899	0.7856	6.614269	29.91448
60	9.36988	3.2569925	0.7930	0.7886	6.617328	29.93269
61	9.36188	3.2614581	0.7990	0.7946	6.616315	29.98483
62	9.35312	3.2560598	0.7961	0.7917	6.619629	29.93721
63	9.33924	3.2574437	0.7961	0.7917	6.620609	29.96292
64	9.32057	3.2577758	0.7900	0.7857	6.622584	29.98195
65	9.31016	3.2611141	0.7900	0.7856	6.622327	30.02471
66	9.31644	3.2715192	0.7900	0.7857	6.617133	30.12552
67	9.37870	3.2988267	0.7992	0.7948	6.598371	30.35130
68	9.43444	3.3077656	0.7930	0.7887	6.588286	30.39508
69	9.47223	3.3176914	0.7900	0.7857	6.579816	30.46401
70	9.51587	3.3331860	0.7931	0.7888	6.568345	30.58447
71	9.54975	3.3354096	0.7932	0.7889	6.563630	30.57819
72	9.58943	3.3476324	0.7932	0.7888	6.554039	30.66850
73	9.64591	3.3542216	0.7963	0.7919	6.545000	30.68713
74	9.70704	3.3600997	0.7933	0.7889	6.535773	30.69453
75	9.76041	3.3629449	0.7903	0.7859	6.528698	30.67783
76	9.80566	3.3711510	0.7903	0.7860	6.520283	30.72222
77	9.83606	3.3676109	0.7904	0.7860	6.518429	30.66058
78	9.86866	3.3756883	0.7965	0.7921	6.511479	30.71434
79	9.90381	3.3713974	0.7966	0.7922	6.509421	30.64121
80	9.94995	3.3770016	0.7907	0.7863	6.502040	30.65848
81	9.99845	3.3788743	0.7877	0.7833	6.495966	30.63618
82	10.03035	3.3814464	0.7908	0.7865	6.491422	30.63500
83	10.07451	3.3813442	0.7909	0.7866	6.486653	30.59661
84	10.10805	3.3869104	0.7970	0.7926	6.480708	30.62407
85	10.13914	3.3813118	0.7941	0.7898	6.479634	30.54173
86	10.16946	3.3874628	0.8003	0.7959	6.473810	30.57773
87	10.19818	3.3824610	0.7943	0.7899	6.472747	30.50351
88	10.23160	3.3815521	0.7823	0.7780	6.469492	30.46635
89	10.25749	3.3851164	0.8007	0.7963	6.465226	30.48020
90	10.29158	3.3853448	0.8160	0.8115	6.461440	30.45387
91	10.31412	3.3783437	0.8040	0.7995	6.461856	30.36522
92	10.34611	3.3831011	0.8041	0.7997	6.456452	30.38586
93	10.38271	3.3813663	0.7981	0.7937	6.453198	30.33804
94	10.38968	3.3777333	0.7983	0.7939	6.453922	30.29611
95	10.41188	3.3824713	0.8015	0.7971	6.449597	30.32472
96	10.43653	3.3745267	0.8016	0.7972	6.450155	30.22530
97	10.45376	3.3787359	0.8079	0.8035	6.446586	30.25277
98	10.48298	3.3795993	0.8020	0.7976	6.443082	30.23708
99	10.50001	3.3705216	0.7930	0.7886	6.444912	30.13298
100	10.48428	3.3733647	0.7962	0.7918	6.445462	30.17417
101	10.50268	3.3743863	0.8025	0.7981	6.443062	30.16907
102	10.51892	3.3695064	0.8027	0.7983	6.443278	30.10730
103	10.52636	3.3740624	0.8089	0.8044	6.440635	30.14627
104	10.54944	3.3644324	0.7938	0.7895	6.442026	30.03192
105	10.52761	3.3647180	0.7940	0.7897	6.444271	30.05272
106	10.54523	3.3646861	0.8034	0.7990	6.442379	30.03788
107	10.55273	3.3627714	0.7975	0.7931	6.442339	30.01277
108	10.56337	3.3640075	0.8098	0.8054	6.440692	30.01624
109	10.57719	3.3626190	0.8070	0.8025	6.439757	29.99115
110	10.58322	3.3603499	0.7950	0.7907	6.440018	29.96377
111	10.57952	3.3572136	0.7953	0.7909	6.441680	29.93582
112	10.57918	3.3620802	0.8016	0.7972	6.439758	29.98419
113	10.58664	3.3545723	0.8017	0.7973	6.441974	29.90389
114	10.58937	3.3598239	0.8111	0.8067	6.439566	29.95353
115	10.60798	3.3550027	0.8022	0.7978	6.439491	29.89066
116	10.59984	3.3506213	0.7994	0.7950	6.442134	29.85406
117	10.60696	3.3532359	0.8026	0.7982	6.440313	29.87405
118	10.61635	3.3521658	0.7998	0.7954	6.439726	29.85581
119	10.59791	3.3436674	0.8091	0.8047	6.445141	29.78699
120	10.62370	3.3515580	0.8216	0.8171	6.439176	29.84379
121	10.67307	3.3340453	0.7974	0.7930	6.440855	29.63102
122	10.65134	3.3429331	0.8038	0.7994	6.439646	29.73621
123	10.67597	3.3407385	0.8071	0.8026	6.437858	29.69456
124	10.68522	3.3344242	0.8042	0.7998	6.439386	29.62490
125	10.65527	3.3399674	0.8258	0.8213	6.440410	29.70378
126	10.68339	3.3195135	0.8261	0.8215	6.445558	29.47965
127	9.96361	3.2112091	1.3376	1.3302	6.569551	28.98476
128	9.32563	3.2030683	2.2022	2.1901	6.645605	29.42043
129	9.19857	3.1969441	3.2099	3.1922	6.662876	29.46234
130	9.06629	3.1879673	4.2449	4.2215	6.682079	29.47954
131	8.79850	3.1744433	5.2891	5.2599	6.719187	29.56265
132	8.62999	3.1673431	6.3454	6.3105	6.742100	29.62968
133	8.47863	3.1567277	7.3896	7.3489	6.764710	29.64615
134	8.35814	3.1495926	8.4581	8.4115	6.782217	29.67284
135	8.26964	3.1405243	9.5388	9.4862	6.796881	29.65238
136	8.09353	3.1276066	10.6561	10.5973	6.823861	29.66545
137	7.97143	3.1194065	11.8128	11.7476	6.842341	29.68223
138	7.92107	3.1176338	12.9574	12.8858	6.849253	29.70583
139	7.91432	3.1169261	14.1234	14.0453	6.850419	29.70360
140	7.87586	3.1122242	15.2984	15.2138	6.857274	29.68620
141	7.76374	3.1021891	16.4644	16.3733	6.875573	29.67504
142	7.45989	3.0857684	17.6212	17.5237	6.920450	29.75969
143	7.24288	3.0812455	18.7994	18.6953	6.949348	29.89765
144	7.06946	3.0808920	19.9319	19.8214	6.970989	30.04386
145	6.81357	3.0851257	21.0522	20.9355	7.000723	30.31360
146	6.69390	3.0895137	22.1238	22.0011	7.013486	30.46689
147	6.64839	3.0911408	23.2745	23.1453	7.018380	30.52465
148	6.61615	3.0932102	24.4344	24.2988	7.021397	30.57550
149	6.60540	3.0940333	25.5882	25.4460	7.022353	30.59359
150	6.59829	3.0933768	26.7269	26.5783	7.023592	30.59224
151	6.58626	3.0937149	27.8989	27.7438	7.024951	30.60617
152	6.57746	3.0945811	29.0436	28.8820	7.025641	30.62300
153	6.57299	3.0950973	30.1761	30.0082	7.025965	30.63214
154	6.56342	3.0960496	31.3208	31.1463	7.026707	30.65061
155	6.55011	3.0966274	32.4564	32.2756	7.028105	30.66835
156	6.54204	3.0977150	33.5554	33.3684	7.028591	30.68700
157	6.53701	3.0986798	34.6516	34.4583	7.028760	30.70160
158	6.52843	3.0999520	35.7262	35.5269	7.029216	30.72276
159	6.51199	3.1014396	36.7918	36.5864	7.030545	30.75336
160	6.50876	3.1032100	37.8909	37.6793	7.030083	30.77519
161	6.52046	3.1082276	39.0143	38.7963	7.026125	30.81915
162	6.53516	3.1123682	40.1256	39.9013	7.022239	30.85079
163	6.54276	3.1229350	41.2673	41.0365	7.016019	30.95926
164	6.52391	3.1333245	42.4181	42.1808	7.013176	31.08984
165	6.51625	3.1390027	43.5629	43.3190	7.011301	31.15863
166	6.51476	3.1461120	44.6589	44.4088	7.007943	31.23759
167	6.50321	3.1524607	45.7794	45.5229	7.006210	31.31742
168	6.47596	3.1530674	46.9577	46.6944	7.009300	31.34855
169	6.46001	3.1538286	48.0690	47.7994	7.010914	31.37106
170	6.45637	3.1548866	49.1590	48.8831	7.010855	31.38554
171	6.45360	3.1553323	50.2398	49.9577	7.010996	31.39249
172	6.45083	3.1552956	51.3237	51.0354	7.011381	31.39413
173	6.44370	3.1549372	52.3954	52.1010	7.012465	31.39624
174	6.44078	3.1561191	53.4795	53.1788	7.012255	31.41144
175	6.44032	3.1574434	54.5695	54.2625	7.011669	31.42594
176	6.44078	3.1579202	55.6566	55.3433	7.011395	31.43026
177	6.43894	3.1589044	56.7405	56.4210	7.011150	31.44230
178	6.42822	3.1596971	57.8305	57.5048	7.012099	31.46040
179	6.41408	3.1601679	58.9541	58.6218	7.013634	31.47811
180	6.39667	3.1582376	60.0836	59.7448	7.016787	31.47236
181	6.33971	3.1549842	61.1707	60.8256	7.025511	31.48853
182	6.28437	3.1534512	62.2516	61.9003	7.033180	31.52227
183	6.21971	3.1525679	63.3357	62.9781	7.041691	31.57193
184	6.17156	3.1511156	64.3953	64.0316	7.048451	31.60007
185	6.15541	3.1538617	65.4671	65.0971	7.049081	31.64508
186	6.21120	3.1663084	66.5785	66.2021	7.035817	31.73070
187	6.27783	3.1718412	67.6839	67.3010	7.024771	31.72935
188	6.30071	3.1735707	68.7618	68.3726	7.021086	31.72667
189	6.31533	3.1755364	69.8276	69.4322	7.018307	31.73430
190	6.33220	3.1770373	70.9116	70.5099	7.015488	31.73468
191	6.33373	3.1772609	71.9833	71.5754	7.015208	31.73522
192	6.32887	3.1782599	73.0614	72.6471	7.015325	31.75028
193	6.27360	3.1748499	74.1515	73.7309	7.023907	31.76357
194	6.16931	3.1730099	75.2324	74.8055	7.037781	31.84016
195	6.10397	3.1721989	76.3104	75.8772	7.046329	31.89194
196	6.03203	3.1758703	77.3671	76.9277	7.053406	32.00010
197	6.00260	3.1760073	78.4330	77.9872	7.057018	32.02892
198	5.97612	3.1754436	79.4926	79.0407	7.060626	32.04715
199	5.96447	3.1746814	80.5585	80.1003	7.062494	32.04915
200	5.95575	3.1742540	81.6547	81.1901	7.063825	32.05210
201	5.95372	3.1746325	82.7175	82.2465	7.063905	32.05774
202	5.94582	3.1736038	83.7893	83.3121	7.065446	32.05320
203	5.91280	3.1737656	84.8430	84.3595	7.069501	32.08579
204	5.89898	3.1742063	85.9149	85.4251	7.071019	32.10331
205	5.89534	3.1746158	86.9961	86.4999	7.071285	32.11084
206	5.89387	3.1747340	88.1228	87.6200	7.071432	32.11301
207	5.89327	3.1749638	89.2404	88.7309	7.071414	32.11562
208	5.89327	3.1751687	90.3398	89.8238	7.071332	32.11738
209	5.89413	3.1753737	91.4543	90.9317	7.071144	32.11833
210	5.89494	3.1757709	92.6114	92.0819	7.070863	32.12145
211	5.89463	3.1762239	93.7381	93.2020	7.070691	32.12627
212	5.89453	3.1773158	94.8618	94.3190	7.070163	32.13805
213	5.89453	3.1782341	95.9612	95.4119	7.069711	32.14781
214	5.89043	3.1786811	97.0758	96.5198	7.070015	32.15617
215	5.87951	3.1792337	98.1934	97.6308	7.071116	32.17222
216	5.86585	3.1785022	99.2958	98.7265	7.073222	32.17647
217	5.84512	3.1784283	100.4133	99.8374	7.075871	32.19484
218	5.84199	3.1785961	101.5340	100.9514	7.076199	32.19916
219	5.84088	3.1787454	102.6576	102.0683	7.076286	32.20135
220	5.83663	3.1800548	103.7844	103.1883	7.076160	32.21954
221	5.83284	3.1803840	104.9172	104.3144	7.076487	32.22630
222	5.82971	3.1809242	106.0379	105.4282	7.076622	32.23481
223	5.81779	3.1813342	107.1525	106.5361	7.077921	32.25025
224	5.80668	3.1811981	108.2822	107.6591	7.079403	32.25878
225	5.80310	3.1815646	109.4183	108.7883	7.079686	32.26576
226	5.80178	3.1816519	110.5540	109.9172	7.079829	32.26745
227	5.78033	3.1817393	111.6960	111.0524	7.082487	32.28838
228	5.76398	3.1807098	112.8319	112.1814	7.085092	32.29188
229	5.70838	3.1786758	113.9769	113.3195	7.093133	32.32167
230	5.69161	3.1828522	115.1159	114.4516	7.093070	32.38425
231	5.69206	3.1828215	116.2639	115.5926	7.093056	32.38291
232	5.68919	3.1856773	117.4151	116.7368	7.091944	32.41729
233	5.69408	3.1865841	118.5632	117.8780	7.090885	32.42226
234	5.70677	3.1892547	119.7264	119.0342	7.087928	32.43958
235	5.72692	3.1915471	120.8866	120.1873	7.084240	32.44545
236	5.74371	3.1931441	122.0499	121.3435	7.081339	32.44673
237	5.74290	3.1930823	123.2071	122.4937	7.081498	32.44624
238	5.73685	3.1931200	124.3614	123.6409	7.082258	32.45192
239	5.73771	3.1945311	125.5185	124.7910	7.081440	32.46642
240	5.74507	3.1957061	126.6634	125.9289	7.079936	32.47201
241	5.75027	3.1967508	127.8724	127.1306	7.078771	32.47818
242	5.75521	3.1979572	129.0813	128.3320	7.077553	32.48642
243	5.75153	3.1978892	130.2811	129.5245	7.078074	32.48861
244	5.74684	3.1985239	131.4567	130.6929	7.078353	32.49969
245	5.74674	3.1989968	132.6382	131.8672	7.078146	32.50454
246	5.74850	3.2002099	133.8289	133.0505	7.077320	32.51591
247	5.74931	3.2034449	135.0195	134.2338	7.075558	32.55097
248	5.75158	3.2076335	136.1948	135.4019	7.073117	32.59537
249	5.75778	3.2103047	137.3766	136.5764	7.070980	32.61887
250	5.75924	3.2112516	138.5580	137.7506	7.070331	32.62754
251	5.76025	3.2114761	139.7426	138.9279	7.070116	32.62852
252	5.76055	3.2117007	140.9272	140.1052	7.069988	32.63017
253	5.76439	3.2126602	142.1027	141.2734	7.069039	32.63670
254	5.76701	3.2141243	143.3025	142.4658	7.067977	32.65006
255	5.76802	3.2154953	144.5175	143.6733	7.067165	32.66392
256	5.76837	3.2160503	145.7295	144.8778	7.066860	32.66923
257	5.76883	3.2165928	146.9353	146.0761	7.066548	32.67431
258	5.76857	3.2175528	148.1504	147.2836	7.066107	32.68477
259	5.76313	3.2193359	149.3928	148.5183	7.065881	32.70951
260	5.75420	3.2194299	150.6199	149.7378	7.066966	32.71861
261	5.74855	3.2219490	151.8532	150.9635	7.066380	32.75186
262	5.74406	3.2242569	153.0866	152.1892	7.065760	32.78161
263	5.74114	3.2254175	154.3229	153.4178	7.065545	32.79693
264	5.74008	3.2262851	155.5623	154.6494	7.065251	32.80712
265	5.73791	3.2269905	156.8078	155.8871	7.065180	32.81657
266	5.73630	3.2275774	158.0501	157.1216	7.065101	32.82414
267	5.73237	3.2283391	159.2956	158.3593	7.065219	32.83594
268	5.72904	3.2294066	160.5471	159.6031	7.065102	32.85060
269	5.72768	3.2298564	161.7986	160.8467	7.065064	32.85638
270	5.71790	3.2307245	163.0348	162.0752	7.065848	32.87508
271	5.69539	3.2328227	164.2741	163.3067	7.067566	32.92010
272	5.68229	3.2350961	165.5014	164.5262	7.068024	32.95795
273	5.67852	3.2367455	166.7255	165.7426	7.067656	32.97966
274	5.67313	3.2395073	167.9467	166.9561	7.066905	33.01553
275	5.66835	3.2408075	169.1647	168.1664	7.066843	33.03430
276	5.66422	3.2423392	170.3858	169.3799	7.066579	33.05505
277	5.66312	3.2434460	171.6008	170.5872	7.066164	33.06804
278	5.66050	3.2445092	172.7976	171.7764	7.065958	33.08204
279	5.65894	3.2448659	173.9910	172.9623	7.065991	33.08701
280	5.65708	3.2458293	175.1787	174.1425	7.065744	33.09914
281	5.65587	3.2461236	176.3693	175.3255	7.065766	33.10306
282	5.65567	3.2463678	177.5783	176.5268	7.065691	33.10542
283	5.65522	3.2465808	178.7689	177.7099	7.065662	33.10769
284	5.65486	3.2469752	179.9596	178.8930	7.065527	33.11190
285	5.65376	3.2480388	181.1625	180.0883	7.065134	33.12442
286	5.64767	3.2515051	182.3591	181.2773	7.064097	33.16902
287	5.63927	3.2526070	183.5620	182.4724	7.064583	33.18915
288	5.63333	3.2532833	184.7311	183.6341	7.064987	33.20207
289	5.62921	3.2536655	185.9158	184.8112	7.065322	33.20987
290	5.62690	3.2539475	187.1004	185.9882	7.065487	33.21475
291	5.62509	3.2541858	188.2847	187.1650	7.065613	33.21864
292	5.62418	3.2542425	189.4633	188.3361	7.065722	33.21959
293	5.62408	3.2543055	190.6629	189.5280	7.065729	33.21981
294	5.62383	3.2544874	191.8598	190.7171	7.065692	33.22152
295	5.62227	3.2547006	193.0503	191.9001	7.065799	33.22488
296	5.62137	3.2548136	194.1679	193.0104	7.065878	33.22650
297	5.62096	3.2548889	194.6009	193.4406	7.065898	33.22753
298	5.62247	3.2550767	194.6471	193.4866	7.065614	33.22815
299	5.62448	3.2551893	194.7118	193.5509	7.065309	33.22741
300	5.62544	3.2551831	194.7429	193.5817	7.065195	33.22638
301	5.62665	3.2554084	194.6433	193.4828	7.064926	33.22779
302	5.62901	3.2554021	194.5435	193.3837	7.064635	33.22544
303	5.62795	3.2552705	194.2549	193.0969	7.064828	33.22513
304	5.62760	3.2552140	193.5526	192.3991	7.064885	33.22519
305	5.62644	3.2549258	192.7957	191.6470	7.065161	33.22344
306	5.62624	3.2547127	192.0384	190.8946	7.065280	33.22160
307	5.62614	3.2546374	191.2479	190.1092	7.065314	33.22124
308	5.62725	3.2545182	190.4816	189.3478	7.065222	33.21918
309	5.62639	3.2544116	189.7185	188.5896	7.065366	33.21920
310	5.62660	3.2543425	188.9551	187.8311	7.065360	33.21860
311	5.62700	3.2542608	188.1617	187.0428	7.065335	33.21767
312	5.62805	3.2540102	187.3039	186.1904	7.065316	33.21422
313	5.62946	3.2537908	186.3793	185.2718	7.065236	33.21081
314	5.63152	3.2534713	185.4426	184.3411	7.065128	33.20563
315	5.63218	3.2534460	184.4755	183.3801	7.065039	33.20517
316	5.63298	3.2531890	183.5143	182.4251	7.065052	33.20195
317	5.63525	3.2527318	182.5443	181.4612	7.064990	33.19503
318	5.63922	3.2517866	181.5649	180.4880	7.064973	33.18091
319	5.64566	3.2493711	180.5825	179.5119	7.065422	33.14774
320	5.65230	3.2474879	179.5879	178.5237	7.065566	33.12041
321	5.65491	3.2469060	178.5963	177.5384	7.065525	33.11175
322	5.65577	3.2466055	177.6017	176.5501	7.065554	33.10800
323	5.65632	3.2463988	176.6072	175.5618	7.065571	33.10561
324	5.65647	3.2462546	175.6186	174.5795	7.065606	33.10432
325	5.65652	3.2460855	174.6239	173.5911	7.065665	33.10286
326	5.65698	3.2455787	173.6232	172.5968	7.065852	33.09718
327	5.65864	3.2448155	172.6011	171.5812	7.066023	33.08742
328	5.66020	3.2444963	171.5730	170.5595	7.065974	33.08279
329	5.66125	3.2437582	170.5478	169.5409	7.066206	33.07392
330	5.66337	3.2428140	169.5502	168.5495	7.066417	33.06167
331	5.66397	3.2419636	168.5524	167.5580	7.066765	33.05196
332	5.66548	3.2404258	167.5487	166.5607	7.067360	33.03359
333	5.66976	3.2393319	166.5297	165.5480	7.067381	33.01755
334	5.67338	3.2377759	165.4923	164.5172	7.067724	32.99693
335	5.67691	3.2354456	164.4611	163.4925	7.068484	32.96767
336	5.68008	3.2343274	163.4541	162.4918	7.068654	32.95244
337	5.68718	3.2314862	162.4382	161.4823	7.069239	32.91392
338	5.69816	3.2304371	161.4405	160.4908	7.068406	32.89187
339	5.71679	3.2296064	160.4153	159.4721	7.066510	32.86484
340	5.72576	3.2291754	159.3627	158.4261	7.065601	32.85176
341	5.72859	3.2283263	158.3314	157.4012	7.065671	32.83995
342	5.73247	3.2276708	157.3307	156.4067	7.065510	32.82928
343	5.73524	3.2272399	156.3328	155.4151	7.065370	32.82221
344	5.73701	3.2267030	155.3078	154.3965	7.065408	32.81495
345	5.73902	3.2258043	154.2551	153.3504	7.065603	32.80338
346	5.74129	3.2242507	153.2115	152.3133	7.066109	32.78418
347	5.74462	3.2223483	152.2016	151.3097	7.066667	32.76000
348	5.74684	3.2211196	151.2009	150.3152	7.067010	32.74450
349	5.74800	3.2203212	150.1937	149.3142	7.067260	32.73487
350	5.75259	3.2193733	149.1685	148.2954	7.067162	32.72025
351	5.75980	3.2180577	148.1221	147.2555	7.066931	32.69896
352	5.76671	3.2167237	147.0846	146.2245	7.066746	32.67776
353	5.76888	3.2160566	146.0473	145.1936	7.066801	32.66866
354	5.76918	3.2154893	145.0372	144.1898	7.067036	32.66247
355	5.76852	3.2139003	144.0209	143.1798	7.067923	32.64572
