Scan Count	Temperature [ITS-90, deg C]	Conductivity [S/m]	Pressure, Strain Gauge [db]	Depth [salt water, m]	Oxygen Saturation, Weiss [ml/l]	Salinity, Practical [PSU]
1	16.77005	0.0002044	0.0059	0.0059	6.785533	0.00882
2	16.71431	0.0002198	0.0059	0.0058	6.793501	0.00884
3	16.65920	0.0003216	0.0059	0.0059	6.801384	0.00914
4	16.60809	0.0003925	0.0089	0.0089	6.808712	0.00936
5	16.59631	0.0003894	0.0059	0.0058	6.810405	0.00935
6	16.43912	0.0276690	0.0242	0.0240	6.826845	0.15972
7	14.30681	2.2825551	0.1489	0.1480	6.414777	17.73519
8	13.59327	2.7797001	0.2281	0.2268	6.326569	22.42490
9	12.93940	2.9147975	0.3985	0.3963	6.351365	24.03579
10	12.65334	2.9305398	0.6663	0.6626	6.377388	24.36206
11	12.90648	2.9462844	0.6510	0.6474	6.343697	24.34309
12	12.91145	2.9593394	0.7028	0.6989	6.338463	24.45880
13	12.86077	2.9550240	0.6754	0.6717	6.345586	24.45214
14	12.91830	2.9566892	0.7089	0.7050	6.338662	24.43024
15	13.02585	2.9416613	0.6602	0.6566	6.332226	24.22474
16	13.09235	2.9611190	0.7150	0.7111	6.318006	24.35878
17	13.21642	2.9384793	0.6542	0.6506	6.312470	24.07507
18	13.22088	2.9583946	0.7151	0.7111	6.304943	24.25211
19	13.30152	2.9499464	0.6572	0.6536	6.299137	24.12477
20	13.18033	2.9629905	0.7272	0.7232	6.307738	24.31950
21	13.25396	2.9541574	0.6512	0.6476	6.302834	24.19286
22	13.15756	2.9621451	0.7120	0.7081	6.310520	24.32638
23	13.34424	2.9588703	0.6664	0.6628	6.291353	24.17817
24	13.25671	2.9635274	0.7182	0.7143	6.299230	24.27568
25	13.34601	2.9542108	0.6482	0.6446	6.292796	24.13509
26	13.25537	2.9413760	0.7213	0.7173	6.307192	24.07661
27	13.22602	2.9423582	0.6909	0.6871	6.310050	24.10402
28	13.19376	2.9431900	0.6696	0.6659	6.313282	24.13194
29	13.19846	2.9369139	0.7153	0.7114	6.314989	24.07226
30	13.27648	2.9305880	0.6727	0.6690	6.308690	23.96608
31	13.33510	2.9359675	0.7154	0.7114	6.300395	23.97771
32	13.38983	2.9352205	0.6667	0.6631	6.294691	23.93671
33	13.45417	2.9263043	0.7215	0.7175	6.290804	23.81650
34	13.50489	2.9375733	0.6698	0.6662	6.281356	23.88594
35	13.52387	2.9123009	0.7003	0.6965	6.288095	23.64790
36	13.57111	2.9244214	0.6790	0.6753	6.278742	23.72711
37	13.61087	2.9021037	0.7309	0.7269	6.282162	23.50332
38	13.66243	2.9173787	0.6549	0.6513	6.271269	23.60793
39	13.70787	2.8871084	0.7280	0.7240	6.276786	23.31065
40	13.75746	2.9176841	0.6763	0.6726	6.260868	23.55234
41	13.76937	2.8832083	0.7008	0.6969	6.271436	23.23879
42	13.79495	2.9097900	0.6917	0.6879	6.259525	23.45928
43	13.79768	2.8875563	0.6857	0.6819	6.266865	23.26028
44	13.81209	2.8986860	0.7223	0.7183	6.261481	23.35029
45	13.82178	2.8893092	0.6737	0.6700	6.263646	23.26127
46	13.83235	2.8910207	0.7073	0.7034	6.261913	23.27005
47	13.83533	2.9014543	0.6860	0.6823	6.258013	23.36076
48	13.83726	2.8963735	0.7014	0.6975	6.259546	23.31453
49	13.84379	2.9049072	0.6893	0.6855	6.255915	23.38624
50	13.84957	2.8927865	0.7228	0.7189	6.259441	23.27529
51	13.87184	2.9042174	0.6742	0.6705	6.253117	23.36311
52	13.86886	2.8945107	0.7139	0.7100	6.256762	23.27892
53	13.86624	2.8889378	0.6866	0.6829	6.258952	23.23114
54	13.84367	2.8970683	0.7293	0.7253	6.258615	23.31681
55	13.85480	2.8929181	0.6838	0.6800	6.258830	23.27331
56	13.84628	2.8854382	0.6961	0.6923	6.262316	23.21218
57	13.83080	2.8904282	0.7175	0.7136	6.262285	23.26573
58	13.85187	2.8908350	0.6780	0.6743	6.259860	23.25662
59	13.84342	2.8875199	0.7146	0.7107	6.261913	23.23234
60	13.85716	2.8917627	0.6813	0.6776	6.258969	23.26165
61	13.85623	2.8824063	0.7058	0.7019	6.262274	23.17933
62	13.85131	2.8909188	0.7150	0.7111	6.259892	23.25769
63	13.87757	2.8996201	0.6664	0.6628	6.254070	23.31892
64	13.88529	2.8825973	0.7244	0.7204	6.259056	23.16354
65	13.86432	2.8956066	0.7123	0.7084	6.256878	23.29137
66	13.88143	2.8888299	0.6790	0.6752	6.257343	23.22104
67	13.87048	2.8815393	0.7035	0.6996	6.261025	23.16309
68	13.85026	2.8951696	0.7279	0.7239	6.258551	23.29599
69	13.89774	2.8997877	0.6794	0.6756	6.251832	23.30820
70	13.91101	2.8999194	0.7008	0.6969	6.250353	23.30134
71	13.92328	2.9025144	0.7009	0.6970	6.248141	23.31689
72	13.94049	2.8978461	0.6767	0.6730	6.247874	23.26521
73	13.92073	2.8981638	0.7438	0.7397	6.249902	23.27993
74	13.93531	2.9012076	0.6465	0.6430	6.247287	23.29807
75	13.89861	2.8973193	0.7349	0.7308	6.252581	23.28581
76	13.87353	2.9018075	0.6650	0.6613	6.253760	23.34075
77	13.87334	2.8940256	0.7108	0.7069	6.256442	23.27192
78	13.86506	2.9013521	0.6896	0.6858	6.254831	23.34183
79	13.88629	2.9028204	0.6928	0.6890	6.252034	23.34198
80	13.89712	2.8987571	0.6929	0.6891	6.252251	23.29945
81	13.88927	2.8993863	0.7265	0.7226	6.252885	23.30975
82	13.90490	2.9025445	0.6597	0.6560	6.250115	23.32828
83	13.90783	2.8982298	0.7208	0.7168	6.251273	23.28830
84	13.90223	2.9000933	0.6904	0.6866	6.251242	23.30819
85	13.89531	2.8968521	0.7149	0.7110	6.253098	23.28367
86	13.88834	2.8888897	0.6968	0.6929	6.256574	23.21740
87	13.88759	2.8941632	0.7030	0.6991	6.254852	23.26453
88	13.89345	2.8803794	0.7062	0.7024	6.258930	23.13903
89	13.89793	2.8946002	0.7003	0.6964	6.253584	23.26216
90	13.90684	2.8874356	0.6791	0.6753	6.255067	23.19341
91	13.90490	2.8899308	0.7340	0.7300	6.254425	23.21663
92	13.90814	2.8834820	0.6793	0.6756	6.256276	23.15765
93	13.90509	2.8837392	0.7069	0.7030	6.256519	23.16175
94	13.89868	2.8878305	0.7161	0.7122	6.255816	23.20180
95	13.91076	2.8779947	0.6828	0.6791	6.257866	23.10756
96	13.90297	2.8874117	0.7164	0.7125	6.255494	23.19551
97	13.91008	2.8821965	0.6922	0.6884	6.256505	23.14512
98	13.91070	2.8853120	0.7167	0.7128	6.255374	23.17229
99	13.91363	2.8898708	0.6895	0.6857	6.253500	23.21086
100	13.91082	2.8815329	0.7262	0.7222	6.256651	23.13880
101	13.89824	2.8880878	0.6837	0.6800	6.255775	23.20435
102	13.89239	2.8816646	0.7173	0.7134	6.258605	23.15103
103	13.88193	2.8879085	0.7114	0.7075	6.257604	23.21257
104	13.89643	2.8870947	0.6963	0.6925	6.256310	23.19664
105	13.90054	2.8835539	0.7118	0.7078	6.257075	23.16284
106	13.89917	2.8856231	0.6906	0.6868	6.256516	23.18198
107	13.89519	2.8827049	0.7272	0.7232	6.257946	23.15855
108	13.89158	2.8864666	0.7000	0.6961	6.257051	23.19401
109	13.90048	2.8831174	0.6940	0.6902	6.257231	23.15903
110	13.89506	2.8844808	0.7276	0.7236	6.257352	23.17433
111	13.90540	2.8872023	0.6852	0.6814	6.255302	23.19221
112	13.90833	2.8837511	0.7218	0.7179	6.256164	23.15991
113	13.90434	2.8840382	0.7037	0.6999	6.256498	23.16485
114	13.89376	2.8818081	0.7313	0.7273	6.258408	23.15147
115	13.89220	2.8845407	0.6858	0.6821	6.257642	23.17660
116	13.88790	2.8756350	0.7468	0.7427	6.261153	23.10037
117	13.88828	2.8850251	0.6922	0.6884	6.257902	23.18324
118	13.87975	2.8701712	0.7045	0.7006	6.263907	23.05694
119	13.82452	2.8836443	0.7382	0.7341	6.265293	23.20938
120	13.86027	2.8838532	0.6987	0.6949	6.261340	23.18971
121	13.87147	2.8782102	0.7263	0.7223	6.262056	23.13302
122	13.86239	2.8814676	0.6960	0.6921	6.261927	23.16732
123	13.86419	2.8663996	0.7113	0.7074	6.266890	23.03287
124	13.84995	2.8764717	0.7237	0.7197	6.264989	23.13055
125	13.86463	2.8592074	0.7117	0.7078	6.269304	22.96899
126	13.87633	2.8710487	0.7118	0.7079	6.263979	23.06674
127	13.88454	2.8488958	0.6936	0.6898	6.270663	22.86601
128	13.88541	2.8411491	0.7455	0.7414	6.273218	22.79704
129	13.89145	2.8416485	0.6818	0.6780	6.272387	22.79790
130	13.87614	2.8427431	0.7306	0.7266	6.273685	22.81661
131	13.87813	2.8426122	0.7064	0.7025	6.273512	22.81429
132	13.86886	2.8429513	0.7157	0.7118	6.274408	22.82277
133	13.87471	2.8427193	0.7067	0.7028	6.273849	22.81726
134	13.87471	2.8426360	0.7221	0.7181	6.273878	22.81652
135	13.87259	2.8425587	0.7192	0.7153	6.274135	22.81709
136	13.88896	2.8412858	0.7010	0.6972	6.272783	22.79616
137	13.91799	2.8407146	0.7347	0.7307	6.269811	22.77396
138	13.90665	2.8404709	0.7075	0.7036	6.271131	22.77852
139	13.91905	2.8400546	0.7137	0.7098	6.269921	22.76752
140	13.91743	2.8401676	0.7169	0.7129	6.270059	22.76947
141	13.91967	2.8400486	0.7140	0.7101	6.269855	22.76710
142	13.92098	2.8393411	0.7294	0.7254	6.269954	22.76008
143	13.92734	2.8397156	0.7082	0.7043	6.269133	22.75964
144	13.92129	2.8400189	0.9549	0.9496	6.269691	22.76581
145	13.85212	2.8520283	1.8041	1.7942	6.273138	22.91263
146	13.46395	2.9035204	2.8755	2.8597	6.297721	23.60561
147	12.05979	3.0253495	3.9530	3.9312	6.408330	25.63290
148	11.35732	3.0420247	5.0456	5.0178	6.480523	26.27991
149	10.74912	3.0828252	6.1505	6.1166	6.533198	27.11315
150	10.29395	3.1004586	7.2310	7.1912	6.577918	27.62650
151	9.69181	3.1419112	8.3450	8.2990	6.629753	28.50502
152	9.38631	3.1619299	9.4864	9.4341	6.656457	28.95069
153	9.11397	3.1796699	10.6217	10.5630	6.680293	29.35276
154	8.65499	3.1797309	11.7570	11.6921	6.733727	29.73462
155	8.38760	3.1718896	12.9075	12.8362	6.768697	29.87841
156	7.96866	3.1657913	14.0823	14.0045	6.821200	30.17220
157	7.73701	3.1647721	15.2450	15.1607	6.849396	30.36166
158	7.63361	3.1630645	16.4107	16.3199	6.862637	30.43324
159	7.51605	3.1581204	17.5765	17.4792	6.879161	30.48301
160	7.23133	3.1487110	18.7574	18.6535	6.918191	30.63268
161	6.89476	3.1413813	19.9049	19.7946	6.962929	30.85306
162	6.77800	3.1384624	21.0432	20.9266	6.978753	30.92578
163	6.64530	3.1327064	22.1755	22.0525	6.998019	30.98225
164	6.52601	3.1296241	23.3138	23.1844	7.014368	31.05613
165	6.48797	3.1279415	24.4643	24.3285	7.019963	31.07172
166	6.46852	3.1268138	25.5966	25.4544	7.022972	31.07650
167	6.39058	3.1188542	26.7258	26.5773	7.036722	31.05936
168	6.20391	3.1111926	27.8916	27.7365	7.064008	31.14476
169	6.12564	3.1098895	29.0481	28.8865	7.074537	31.20161
170	6.11699	3.1100006	30.1835	30.0154	7.075593	31.21026
171	6.12447	3.1096502	31.2884	31.1141	7.074855	31.19898
172	6.11018	3.1087649	32.4207	32.2400	7.077133	31.20176
173	6.10331	3.1088945	33.5681	33.3810	7.077956	31.20897
174	6.11089	3.1092515	34.7157	34.5220	7.076844	31.20543
175	6.11511	3.1094302	35.8632	35.6631	7.076245	31.20299
176	6.11699	3.1094859	37.0047	36.7982	7.076005	31.20134
177	6.11775	3.1095293	38.1674	37.9542	7.075912	31.20058
178	6.11302	3.1088899	39.3210	39.1013	7.076860	31.19729
179	6.09980	3.1084476	40.4655	40.2393	7.078777	31.20400
180	6.09462	3.1083864	41.6070	41.3743	7.079486	31.20755
181	6.09365	3.1082884	42.7302	42.4911	7.079683	31.20682
182	6.09228	3.1082211	43.8413	43.5958	7.079915	31.20682
183	6.08684	3.1078155	44.9524	44.7005	7.080832	31.20679
184	6.06956	3.1062663	46.0847	45.8265	7.083832	31.20494
185	6.02183	3.1045886	47.2232	46.9584	7.090744	31.22970
186	5.98348	3.1027328	48.3556	48.0843	7.096573	31.24387
187	5.92526	3.1009392	49.4759	49.1982	7.104894	31.27711
188	5.89438	3.1001717	50.6113	50.3271	7.109230	31.29656
189	5.87521	3.0993121	51.7286	51.4380	7.112133	31.30418
190	5.83633	3.0981947	52.8459	52.5489	7.117673	31.32718
191	5.79658	3.0968870	53.9692	53.6657	7.123431	31.34889
192	5.77836	3.0965129	55.0805	54.7706	7.125969	31.36109
193	5.71669	3.0923569	56.1947	55.8784	7.136024	31.37130
194	5.60483	3.0892159	57.3029	56.9802	7.151988	31.43974
195	5.55199	3.0878546	58.4019	58.0729	7.159496	31.47328
196	5.51863	3.0870884	59.5284	59.1928	7.164203	31.49534
197	5.48865	3.0841326	60.6274	60.2855	7.169645	31.48955
198	5.44101	3.0821345	61.7508	61.4024	7.176854	31.51111
199	5.41734	3.0815158	62.8469	62.4921	7.180254	31.52582
200	5.40588	3.0813262	63.9156	63.5546	7.181854	31.53392
201	5.39228	3.0824793	64.9904	64.6231	7.183014	31.55925
202	5.38937	3.0831541	66.1015	65.7279	7.183052	31.56909
203	5.38572	3.0831299	67.1793	66.7994	7.183559	31.57173
204	5.39163	3.0851110	68.2328	67.8467	7.181766	31.58810
205	5.41959	3.0879205	69.2802	68.8880	7.176695	31.59307
206	5.42955	3.0880189	70.3489	69.9506	7.175387	31.58430
207	5.42955	3.0881665	71.4663	71.0614	7.175334	31.58543
208	5.43080	3.0884306	72.5777	72.1663	7.175057	31.58670
209	5.43210	3.0895600	73.6585	73.2408	7.174313	31.59773
210	5.43235	3.0895542	74.7364	74.3124	7.174308	31.59691
211	5.43090	3.0905119	75.8356	75.4051	7.174009	31.60858
212	5.43220	3.0915801	76.9439	76.5069	7.173298	31.61891
213	5.43160	3.0928021	78.0947	77.6510	7.172750	31.63274
214	5.43055	3.0939382	79.2853	78.8346	7.172307	31.64601
215	5.42609	3.0962230	80.4332	79.9757	7.171687	31.67552
216	5.41133	3.0998785	81.5720	81.1078	7.171656	31.73029
217	5.39768	3.1012309	82.7229	82.2520	7.172711	31.75797
218	5.39503	3.1018336	83.9134	83.4355	7.172757	31.76673
219	5.39338	3.1022949	85.0919	84.6070	7.172749	31.77295
220	5.39093	3.1026456	86.2641	85.7723	7.172902	31.77868
221	5.38887	3.1038876	87.4425	86.9437	7.172529	31.79413
222	5.38208	3.1047549	88.6908	88.1847	7.172966	31.80980
223	5.37443	3.1065569	89.9270	89.4135	7.173011	31.83688
224	5.36943	3.1084331	91.1511	90.6304	7.172677	31.86231
225	5.36843	3.1093808	92.4086	91.8804	7.172327	31.87340
226	5.36783	3.1102239	93.6844	93.1486	7.171983	31.88291
227	5.36838	3.1110364	94.9481	94.4048	7.171507	31.89099
228	5.36823	3.1141261	96.2360	95.6850	7.169905	31.92556
229	5.36723	3.1179681	97.5361	96.9774	7.168009	31.96947
230	5.36573	3.1187383	98.8363	98.2698	7.167819	31.97900
231	5.36698	3.1182153	100.1486	99.5743	7.167969	31.97124
232	5.36603	3.1197553	101.4123	100.8304	7.167297	31.98900
233	5.36313	3.1201869	102.7065	102.1168	7.167466	31.99603
234	5.36203	3.1215548	103.9731	103.3759	7.166905	32.01199
235	5.36103	3.1223500	105.2521	104.6472	7.166637	32.02135
236	5.35968	3.1251357	106.5584	105.9456	7.165350	32.05362
237	5.35773	3.1272443	107.8433	107.2228	7.164502	32.07879
238	5.36028	3.1285949	109.1282	108.5000	7.163484	32.09106
239	5.36353	3.1303157	110.4071	109.7712	7.162180	32.10686
240	5.36348	3.1316113	111.6951	111.0515	7.161524	32.12099
241	5.35209	3.1329072	112.9893	112.3378	7.162313	32.14599
242	5.33595	3.1338393	114.2956	113.6362	7.163901	32.17142
243	5.33056	3.1337966	115.6080	114.9407	7.164642	32.17546
244	5.32322	3.1334331	116.9357	116.2604	7.165803	32.17773
245	5.30855	3.1351119	118.2876	117.6040	7.166806	32.21025
246	5.30166	3.1377786	119.6426	118.9509	7.166287	32.24654
247	5.30346	3.1407363	121.0097	120.3096	7.164505	32.27779
248	5.30870	3.1421941	122.3496	121.6414	7.163088	32.28867
249	5.31014	3.1442761	123.6864	122.9701	7.161819	32.31031
250	5.31578	3.1468035	125.0414	124.3168	7.159780	32.33295
251	5.33226	3.1493934	126.4390	125.7059	7.156333	32.34583
252	5.35179	3.1518109	127.8306	127.0890	7.152593	32.35379
253	5.37123	3.1533756	129.2130	128.4629	7.149324	32.35214
254	5.38712	3.1559490	130.5863	129.8279	7.145968	32.36536
255	5.40153	3.1584056	131.9627	131.1958	7.142867	32.37869
256	5.40673	3.1609064	133.3511	132.5757	7.140909	32.40138
257	5.41108	3.1642811	134.7580	133.9740	7.138595	32.43479
258	5.40398	3.1670501	136.1618	135.3692	7.138051	32.47241
259	5.40543	3.1722371	137.5595	136.7582	7.135139	32.52922
260	5.42324	3.1770116	138.9601	138.1502	7.130386	32.56548
261	5.43896	3.1809821	140.3548	139.5363	7.126330	32.59462
262	5.45243	3.1862273	141.7615	140.9343	7.121884	32.64038
263	5.45939	3.1887054	143.1744	142.3385	7.119728	32.66104
264	5.46114	3.1899853	144.5752	143.7306	7.118861	32.67317
265	5.46239	3.1905262	145.9364	145.0834	7.118448	32.67742
266	5.46319	3.1913031	147.2762	146.4149	7.117967	32.68479
267	5.46750	3.1930308	148.6038	147.7342	7.116541	32.69955
268	5.47131	3.1937023	149.9256	149.0478	7.115738	32.70281
269	5.47291	3.1939762	151.2714	150.3853	7.115423	32.70369
270	5.47376	3.1942935	152.5900	151.6957	7.115179	32.70581
271	5.47321	3.1944741	153.8903	152.9879	7.115182	32.70776
272	5.47296	3.1945864	155.1906	154.2800	7.115184	32.70863
273	5.47321	3.1947608	156.4848	155.5661	7.115090	32.70973
274	5.47211	3.1949539	157.7820	156.8552	7.115156	32.71235
275	5.46935	3.1951532	159.0671	158.1324	7.115425	32.71666
276	5.46770	3.1954644	160.3645	159.4216	7.115497	32.72116
277	5.46650	3.1969506	161.6556	160.7046	7.114890	32.73856
278	5.47221	3.1983125	162.9286	161.9696	7.113482	32.74782
279	5.47792	3.2007444	164.2259	163.2588	7.111509	32.76920
280	5.49251	3.2062447	165.5383	164.5629	7.106803	32.81672
281	5.50770	3.2099303	166.8843	165.9005	7.102987	32.84302
282	5.51908	3.2129884	168.2425	167.2501	7.099982	32.86591
283	5.52379	3.2155243	169.5762	168.5754	7.098086	32.88939
284	5.52721	3.2168706	170.9222	169.9129	7.096981	32.90065
285	5.52816	3.2170829	172.2346	171.2170	7.096780	32.90147
286	5.52881	3.2175569	173.5046	172.4789	7.096478	32.90558
287	5.52956	3.2177817	174.7591	173.7255	7.096294	32.90677
288	5.52971	3.2179628	176.0200	174.9784	7.096209	32.90805
289	5.52971	3.2180504	177.3019	176.2522	7.096192	32.90841
290	5.52971	3.2183625	178.6053	177.5473	7.096058	32.91131
291	5.52916	3.2186247	179.8813	178.8151	7.096017	32.91419
292	5.52916	3.2191860	181.1572	180.0830	7.095751	32.91992
293	5.53137	3.2227402	182.4513	181.3688	7.093630	32.95741
294	5.53428	3.2246179	183.7578	182.6670	7.092308	32.97519
295	5.53834	3.2273507	185.0611	183.9620	7.090391	33.00154
296	5.54115	3.2285678	186.3615	185.2541	7.089430	33.01194
297	5.54391	3.2319200	187.6647	186.5490	7.087350	33.04658
298	5.55415	3.2399212	188.9801	187.8560	7.081894	33.12656
299	5.55897	3.2408589	190.2803	189.1478	7.080833	33.13181
300	5.55932	3.2411343	191.5627	190.4220	7.080675	33.13395
301	5.55987	3.2413722	192.8416	191.6927	7.080510	33.13546
302	5.56023	3.2415288	194.1235	192.9663	7.080414	33.13626
303	5.56088	3.2419855	195.4330	194.2674	7.080123	33.14014
304	5.56213	3.2426985	196.7424	195.5684	7.079622	33.14634
305	5.56264	3.2428676	198.0366	196.8542	7.079501	33.14712
306	5.56244	3.2431181	199.3185	198.1279	7.079424	33.14952
307	5.56254	3.2433810	200.6219	199.4229	7.079303	33.15175
308	5.56439	3.2443879	201.9162	200.7088	7.078573	33.16069
309	5.56635	3.2448760	203.2042	201.9885	7.078103	33.16366
310	5.56781	3.2458831	204.5075	203.2833	7.077423	33.17299
311	5.57137	3.2472718	205.8047	204.5721	7.076281	33.18457
312	5.57388	3.2479977	207.1232	205.8820	7.075619	33.18967
313	5.57584	3.2485110	208.4385	207.1889	7.075138	33.19290
314	5.57735	3.2492745	209.7541	208.4959	7.074580	33.19942
315	5.57921	3.2503698	211.0665	209.7997	7.073805	33.20934
316	5.58609	3.2546819	212.3881	211.1127	7.070719	33.25075
317	5.59267	3.2563225	213.6792	212.3954	7.069075	33.26220
318	5.59503	3.2566797	214.9702	213.6780	7.068625	33.26328
319	5.59548	3.2570183	216.2674	214.9667	7.068422	33.26602
320	5.59568	3.2570750	217.5555	216.2464	7.068397	33.26583
321	5.59578	3.2572570	218.8161	217.4987	7.068318	33.26716
322	5.59609	3.2581090	220.0647	218.7392	7.067862	33.27590
323	5.59739	3.2587043	221.3283	219.9945	7.067417	33.28072
324	5.59769	3.2588112	222.5799	221.2379	7.067353	33.28101
325	5.59764	3.2591936	223.8314	222.4811	7.067187	33.28477
326	5.59830	3.2601460	225.0920	223.7335	7.066636	33.29429
327	5.60332	3.2627901	226.3831	225.0161	7.064658	33.31863
328	5.60769	3.2636113	227.6925	226.3169	7.063719	33.32296
329	5.61016	3.2650029	228.9713	227.5872	7.062715	33.33565
330	5.61448	3.2668084	230.0462	228.6551	7.061261	33.35129
331	5.61810	3.2681188	230.6648	229.2695	7.060143	33.36224
332	5.62016	3.2687458	230.8695	229.4730	7.059565	33.36720
333	5.62127	3.2691221	230.9982	229.6008	7.059235	33.37030
334	5.62182	3.2694921	231.1086	229.7104	7.058976	33.37388
335	5.62252	3.2696990	231.1975	229.7987	7.058783	33.37549
336	5.62298	3.2698621	231.2744	229.8751	7.058643	33.37685
337	5.62328	3.2699436	231.3482	229.9484	7.058565	33.37744
338	5.62378	3.2701192	231.4220	230.0218	7.058413	33.37889
339	5.62428	3.2704140	231.4745	230.0739	7.058198	33.38170
340	5.62539	3.2705833	231.5149	230.1140	7.057974	33.38250
341	5.62609	3.2706648	231.5461	230.1450	7.057846	33.38272
342	5.62644	3.2707777	231.5712	230.1700	7.057744	33.38363
343	5.62770	3.2707400	231.4564	230.0559	7.057606	33.38202
344	5.62991	3.2704075	231.0737	229.6757	7.057500	33.37625
345	5.63072	3.2700436	230.5936	229.1989	7.057581	33.37158
346	5.62639	3.2684320	230.0254	228.6343	7.058944	33.35789
347	5.62358	3.2679491	229.4113	228.0244	7.059529	33.35552
348	5.62081	3.2667390	228.7974	227.4145	7.060489	33.34486
349	5.61760	3.2656857	228.1711	226.7923	7.061423	33.33642
350	5.61584	3.2652092	227.5482	226.1735	7.061875	33.33308
351	5.61393	3.2643442	226.9220	225.5514	7.062549	33.32548
352	5.61141	3.2636421	226.2927	224.9263	7.063212	33.32033
353	5.61001	3.2632159	225.6939	224.3314	7.063596	33.31719
354	5.60890	3.2626706	225.0981	223.7396	7.064004	33.31240
