Scan Count	Temperature [ITS-90, deg C]	Conductivity [S/m]	Depth [salt water, m]	Oxygen Saturation, Weiss [ml/l]	Salinity, Practical [PSU]
1	21.54616	0.0085593	-0.0189	6.158232	0.04735
2	21.54553	0.0085562	-0.0219	6.158308	0.04734
3	21.54452	0.0085717	-0.0128	6.158427	0.04742
4	21.54382	0.0085717	-0.0159	6.158511	0.04742
5	21.54288	0.0085717	-0.0189	6.158624	0.04742
6	21.54186	0.0085810	-0.0159	6.158744	0.04746
7	21.54101	0.0085717	-0.0128	6.158849	0.04742
8	21.53960	0.0085717	-0.0159	6.159018	0.04742
9	21.53898	0.0085717	-0.0129	6.159093	0.04742
10	21.53804	0.0085810	-0.0159	6.159204	0.04746
11	21.53734	0.0085717	-0.0159	6.159290	0.04742
12	21.53632	0.0085872	-0.0189	6.159409	0.04749
13	21.53570	0.0085717	-0.0189	6.159487	0.04742
14	21.53437	0.0085717	-0.0159	6.159646	0.04742
15	21.53383	0.0085717	-0.0129	6.159712	0.04742
16	21.53297	0.0085655	-0.0129	6.159816	0.04739
17	21.53234	0.0085624	-0.0129	6.159891	0.04738
18	21.53148	0.0085500	-0.0159	6.159997	0.04732
19	21.53039	0.0085438	-0.0129	6.160129	0.04729
20	21.53000	0.0085407	-0.0129	6.160177	0.04728
21	21.52922	0.0085438	-0.0159	6.160270	0.04729
22	21.52860	0.0086058	-0.0159	6.160334	0.04759
23	21.52782	0.0085965	-0.0099	6.160429	0.04754
24	21.52712	0.0085810	-0.0189	6.160517	0.04747
25	21.52579	0.0085810	-0.0220	6.160676	0.04747
26	21.52462	0.0085872	-0.0159	6.160816	0.04750
27	21.52353	0.0085810	-0.0129	6.160948	0.04747
28	21.52236	0.0085810	-0.0129	6.161089	0.04747
29	21.52142	0.0085810	-0.0129	6.161201	0.04747
30	21.52064	0.0085810	-0.0099	6.161295	0.04748
31	21.51963	0.0085810	-0.0129	6.161417	0.04748
32	21.51885	0.0085872	-0.0159	6.161510	0.04751
33	21.51768	0.0085872	-0.0159	6.161650	0.04751
34	21.51682	0.0085872	-0.0159	6.161753	0.04751
35	21.51557	0.0085965	-0.0159	6.161902	0.04755
36	21.51432	0.0086058	-0.0129	6.162050	0.04760
37	21.51354	0.0086151	-0.0220	6.162143	0.04764
38	21.51253	0.0086243	-0.0129	6.162263	0.04769
39	21.51144	0.0086274	-0.0159	6.162394	0.04770
40	21.51011	0.0086429	-0.0159	6.162550	0.04778
41	21.50902	0.0089805	-0.0129	6.162623	0.04940
42	21.50832	0.0097301	-0.0159	6.162577	0.05303
43	21.50723	0.0103808	-0.0129	6.162595	0.05619
44	21.50629	0.0110750	-0.0159	6.162586	0.05958
45	21.50582	0.0118688	-0.0159	6.162502	0.06346
46	21.50497	0.0128676	-0.0129	6.162428	0.06838
47	21.50387	0.0139848	-0.0099	6.162361	0.07390
48	21.50286	0.0153884	-0.0189	6.162231	0.08088
49	21.50153	0.0171908	-0.0159	6.162066	0.08990
50	21.50044	0.0198475	-0.0189	6.161716	0.10329
51	21.49927	0.0220743	-0.0190	6.161449	0.11459
52	21.49834	0.0238698	-0.0159	6.161232	0.12375
53	21.49717	0.0283590	-0.0159	6.160543	0.14682
54	21.49600	0.0282840	-0.0189	6.160697	0.14643
55	21.49545	0.0274248	-0.0099	6.160922	0.14201
56	21.49444	0.0267752	-0.0129	6.161164	0.13866
57	21.49397	0.0263567	-0.0189	6.161298	0.13651
58	21.49304	0.0260383	-0.0159	6.161469	0.13488
59	21.49148	0.0257418	-0.0098	6.161712	0.13336
60	21.49086	0.0253797	-0.0189	6.161853	0.13151
61	21.48992	0.0250958	-0.0190	6.162018	0.13005
62	21.48883	0.0247993	-0.0159	6.162204	0.12854
63	21.48828	0.0248025	-0.0190	6.162269	0.12855
64	21.48719	0.0245248	-0.0129	6.162451	0.12713
65	21.48641	0.0242285	-0.0129	6.162600	0.12562
66	21.48532	0.0239447	-0.0189	6.162783	0.12417
67	21.48439	0.0236733	-0.0190	6.162945	0.12278
68	21.48361	0.0234145	-0.0190	6.163087	0.12146
69	21.48283	0.0232181	-0.0129	6.163217	0.12046
70	21.48213	0.0230280	-0.0129	6.163336	0.11949
71	21.48096	0.0228596	-0.0189	6.163507	0.11864
72	21.47995	0.0226508	-0.0159	6.163667	0.11757
73	21.47901	0.0224825	-0.0159	6.163811	0.11672
74	21.47831	0.0222581	-0.0159	6.163936	0.11558
75	21.47730	0.0220182	-0.0190	6.164102	0.11436
76	21.47668	0.0218904	-0.0189	6.164201	0.11371
77	21.47605	0.0218717	-0.0129	6.164279	0.11361
78	21.47520	0.0222301	-0.0098	6.164316	0.11544
79	21.47488	0.0238636	-0.0159	6.164054	0.12378
80	21.47333	0.0242035	-0.0159	6.164178	0.12552
81	21.47021	0.0241973	-0.0189	6.164554	0.12550
82	21.46639	0.0240663	-0.0099	6.165037	0.12484
83	21.46149	0.0239509	-0.0129	6.165649	0.12426
84	21.45308	0.0239104	-0.0099	6.166669	0.12407
85	21.44872	0.0237544	-0.0189	6.167222	0.12329
86	21.44740	0.0237794	-0.0189	6.167377	0.12342
87	21.44709	0.0238199	-0.0159	6.167407	0.12363
88	21.44701	0.0238449	-0.0159	6.167411	0.12375
89	21.44685	0.0237731	-0.0189	6.167443	0.12339
90	21.44678	0.0238916	-0.0159	6.167431	0.12399
91	21.44670	0.0236578	-0.0068	6.167483	0.12280
92	21.44577	0.0237264	-0.0129	6.167583	0.12315
93	21.44444	0.0236578	-0.0159	6.167755	0.12280
94	21.44382	0.0235892	-0.0129	6.167843	0.12245
95	21.44343	0.0235361	-0.0129	6.167899	0.12218
96	21.44351	0.0234239	-0.0159	6.167911	0.12161
97	21.44195	0.0232649	-0.0128	6.168128	0.12080
98	21.44040	0.0230654	-0.0129	6.168352	0.11978
99	21.43985	0.0229002	-0.0129	6.168448	0.11894
100	21.43946	0.0227349	-0.0189	6.168525	0.11810
101	21.43907	0.0225324	-0.0129	6.168609	0.11707
102	21.43868	0.0223049	-0.0068	6.168698	0.11591
103	21.43837	0.0221179	-0.0189	6.168770	0.11495
104	21.43736	0.0219185	-0.0189	6.168928	0.11394
105	21.43674	0.0217845	-0.0159	6.169028	0.11326
106	21.43658	0.0217160	-0.0219	6.169059	0.11291
107	21.43581	0.0217502	-0.0098	6.169146	0.11309
108	21.43549	0.0216817	-0.0159	6.169197	0.11274
109	21.43526	0.0215321	-0.0159	6.169252	0.11198
110	21.43472	0.0215695	0.0053	6.169311	0.11217
111	21.32792	0.0215976	0.0204	6.182196	0.11255
112	20.68050	0.4788570	0.0598	6.162676	2.81838
113	19.13152	2.0650784	0.1536	5.943239	14.10644
114	17.79557	2.3371398	0.1930	6.009674	16.67739
115	17.08358	2.1068982	0.2021	6.152598	15.15212
116	16.71415	2.4872737	0.1900	6.080813	18.33503
117	16.52370	1.0496350	0.1809	6.529560	7.21624
118	16.62906	0.7299768	0.1839	6.608390	4.87107
119	16.78544	0.5003986	0.1869	6.652106	3.24071
120	16.91218	1.1490196	0.1991	6.451228	7.88004
121	17.04852	1.8448737	0.1990	6.232880	13.12111
122	17.07709	1.5470064	0.1960	6.316008	10.82807
123	17.07389	0.3916412	0.1930	6.642658	2.47922
124	17.16132	1.1175661	0.1960	6.428998	7.60080
125	17.28624	0.7801648	0.2081	6.507961	5.14738
126	17.33687	1.6199940	0.2324	6.264333	11.31135
127	17.35365	1.8023966	0.2505	6.210173	12.69711
128	17.34258	1.8210695	0.2384	6.206085	12.84381
129	17.33604	1.1392815	0.2081	6.401082	7.72717
130	17.35014	1.0671255	0.1809	6.419645	7.19808
131	17.45484	0.2652457	0.1627	6.624229	1.62559
132	17.56749	0.2410853	0.1779	6.615137	1.46569
133	17.68523	1.3772398	0.2021	6.291792	9.40529
134	17.76061	0.9605712	0.2172	6.397929	6.36294
135	17.79752	0.5868191	0.1991	6.494217	3.74770
136	17.80568	0.7200398	0.1688	6.457534	4.66391
137	17.81502	0.1579008	0.1536	6.602418	0.93357
138	17.83148	0.1469931	0.1567	6.602859	0.86575
139	17.90719	0.3587706	0.1567	6.539485	2.21375
140	17.95421	1.4653950	0.1688	6.235534	9.99364
141	17.98482	0.2420389	0.1628	6.558728	1.45712
142	18.00494	0.2241035	0.1536	6.560503	1.34286
143	17.99057	0.7188911	0.1446	6.434256	4.63517
144	17.96296	0.2967729	0.1416	6.547885	1.80826
145	17.94007	0.2239576	0.1506	6.569223	1.34402
146	17.94182	0.3526004	0.1415	6.536483	2.17158
147	17.94238	0.2613874	0.1507	6.559550	1.58194
148	17.93720	0.2752386	0.1627	6.556754	1.67084
149	17.92292	1.3958607	0.1779	6.258417	9.48810
150	17.88056	1.4141291	0.1809	6.258365	9.63257
151	17.82088	1.4216072	0.1809	6.263335	9.70181
152	17.77377	1.3982853	0.1779	6.275395	9.54045
153	17.72797	1.3897904	0.1839	6.283200	9.48826
154	17.63567	1.3920943	0.1870	6.293545	9.52668
155	17.48618	1.8359713	0.1900	6.185484	12.91278
156	17.36452	1.8640231	0.1991	6.191273	13.16687
157	17.32532	1.8487557	0.1991	6.200107	13.06204
158	17.28905	1.6589799	0.1960	6.258756	11.62094
159	17.25865	1.5645856	0.1930	6.289401	10.91289
160	17.23602	1.7459515	0.1961	6.239917	12.30060
161	17.22739	1.9985441	0.1900	6.168012	14.25342
162	17.19122	1.8774416	0.1870	6.207108	13.32666
163	17.16502	1.7923053	0.1840	6.234734	12.67833
164	17.18219	1.7916049	0.1839	6.232958	12.66760
165	17.19595	1.8769007	0.1809	6.206727	13.32094
166	17.20793	1.8679976	0.1839	6.207935	13.24824
167	17.21711	1.8661775	0.1930	6.207415	13.23120
168	17.22513	1.8766945	0.1961	6.203465	13.30980
169	17.22924	1.8582559	0.1961	6.208319	13.16613
170	17.23321	1.8801100	0.1930	6.201560	13.33353
171	17.23239	1.8841926	0.2021	6.200475	13.36534
172	17.23034	1.8787188	0.2021	6.202289	13.32373
173	17.22979	1.9338288	0.2021	6.186440	13.75023
174	17.22657	1.8658073	0.2112	6.206444	13.22527
175	17.22355	1.7855191	0.2172	6.229953	12.60797
176	17.20903	2.7848475	0.2203	5.942210	20.50433
177	17.18041	1.9709038	0.2143	6.181284	14.05484
178	17.16283	1.6014685	0.2203	6.290111	11.21876
179	17.15373	2.0681589	0.2203	6.156071	14.82267
180	17.11874	3.2314404	0.2203	5.821428	24.20963
181	17.07470	3.2119187	0.2203	5.831282	24.07431
182	17.05159	2.8959225	0.2173	5.925670	21.48897
183	17.04156	3.5245844	0.2112	5.743367	26.70148
184	17.02657	3.1481159	0.2082	5.854483	23.57495
185	17.01445	3.0083369	0.2173	5.896497	22.43000
186	17.01356	2.3744649	0.2173	6.082088	17.29756
187	17.01751	3.0498945	0.2173	5.884050	22.77004
188	17.00941	3.0257488	0.2233	5.891900	22.57593
189	16.99144	3.0255237	0.2203	5.893725	22.58411
190	16.97865	3.0456580	0.2233	5.889081	22.75702
191	16.96185	3.0368925	0.2294	5.893291	22.69426
192	16.92440	3.4726033	0.2354	5.769221	26.34191
193	16.84590	3.6534330	0.2446	5.723348	27.92108
194	16.79566	3.6007674	0.2385	5.743325	27.50923
195	16.78497	3.5766903	0.2385	5.751375	27.31258
196	16.77117	3.6048183	0.2446	5.744340	27.56032
197	16.72610	3.5692590	0.2385	5.758901	27.28958
198	16.68520	3.5663662	0.2355	5.763470	27.29281
199	16.66598	3.5714724	0.2385	5.763705	27.34922
200	16.65028	3.6294872	0.2416	5.747948	27.85327
201	16.64610	3.6392892	0.2446	5.745421	27.93965
202	16.59877	3.6347861	0.2537	5.751015	27.93421
203	16.55339	3.6460859	0.2567	5.751744	28.06233
204	16.56239	3.6545890	0.2628	5.748406	28.12864
205	16.56380	3.6322709	0.2627	5.754914	27.93711
206	16.50793	3.6417430	0.2718	5.757132	28.05704
207	16.43928	3.6394224	0.2749	5.764019	28.08531
208	16.38194	3.6353572	0.2840	5.770422	28.09074
209	16.32529	3.6304969	0.2779	5.777013	28.08885
210	16.24442	3.6254371	0.2840	5.785881	28.10228
211	16.15989	3.6119150	0.2840	5.797674	28.04540
212	16.05821	3.5922575	0.2840	5.812959	27.94741
213	15.95636	3.5827214	0.2780	5.825239	27.93660
214	15.87418	3.5781556	0.2749	5.834223	27.95492
215	15.80080	3.5792411	0.2719	5.840672	28.01612
216	15.76171	3.5856092	0.2720	5.842321	28.09913
217	15.77681	3.5022818	0.2780	5.866688	27.36560
218	15.75278	3.5166228	0.2750	5.864500	27.50650
219	15.70672	3.4814601	0.2780	5.879726	27.23352
220	15.68267	3.5020124	0.2811	5.875605	27.42839
221	15.71295	3.5185909	0.2962	5.867618	27.55125
222	15.69872	3.5262011	0.3022	5.866587	27.62724
223	15.71531	3.5402501	0.3234	5.860679	27.73766
224	15.74306	3.6075274	0.3234	5.837262	28.30305
225	15.74477	3.5779882	0.3265	5.846247	28.04486
226	15.72791	3.5683817	0.3204	5.850786	27.97328
227	15.67684	3.5648732	0.3174	5.856619	27.97886
228	15.62415	3.5652305	0.3174	5.861411	28.01928
229	15.59316	3.5690710	0.3174	5.863099	28.07476
230	15.58251	3.5702910	0.3114	5.863710	28.09298
231	15.56122	3.5783216	0.3084	5.863184	28.17827
232	15.55332	3.5906049	0.3144	5.860081	28.29125
233	15.56814	3.5994863	0.3144	5.855933	28.35825
234	15.57748	3.5932714	0.3205	5.857006	28.29724
235	15.56840	3.5827390	0.3327	5.861137	28.21172
236	15.54261	3.5772048	0.3417	5.865264	28.18178
237	15.51417	3.5773350	0.3508	5.867872	28.20323
238	15.49631	3.5787510	0.3690	5.869092	28.22838
239	15.49143	3.5790109	0.3781	5.869466	28.23415
240	15.49143	3.5762768	0.3841	5.870323	28.21023
241	15.48967	3.5699936	0.3750	5.872456	28.15652
242	15.49104	3.5684818	0.3660	5.872803	28.14232
243	15.49416	3.5735825	0.3539	5.870912	28.18471
244	15.50231	3.5826553	0.3388	5.867310	28.25826
245	15.52285	3.6026120	0.3206	5.859155	28.41816
246	15.54503	3.6163233	0.3206	5.852814	28.52217
247	15.55802	3.6259805	0.3206	5.848598	28.59729
248	15.64495	3.6340917	0.3297	5.838059	28.60527
249	15.80041	3.6350962	0.3419	5.823471	28.50187
250	16.01830	3.6281233	0.3630	5.805673	28.28549
251	16.15285	3.6262804	0.3752	5.793960	28.17414
252	16.19558	3.6261101	0.3994	5.790122	28.14247
253	16.19804	3.6280885	0.4146	5.789299	28.15777
254	16.19498	3.6386866	0.4267	5.786370	28.25122
255	16.20336	3.6382811	0.4297	5.785731	28.24179
256	16.30354	3.6304972	0.4267	5.778988	28.10411
257	16.56306	3.6239973	0.4176	5.757443	27.86698
258	16.81915	3.6110860	0.3934	5.738178	27.58053
259	17.04886	3.5977441	0.3813	5.721442	27.31156
260	17.23870	3.5865215	0.3814	5.707684	27.08973
261	17.36576	3.5781707	0.3571	5.698724	26.93532
262	17.42850	3.5725020	0.3693	5.694742	26.84653
263	17.43877	3.5688225	0.3754	5.694874	26.80910
264	17.40445	3.5676293	0.3845	5.698282	26.82180
265	17.35117	3.5621306	0.4208	5.704622	26.81112
266	17.31089	3.5561686	0.4420	5.709943	26.78795
267	17.26181	3.5570827	0.4662	5.714087	26.82802
268	17.17391	3.5553798	0.4874	5.722482	26.87201
269	17.05206	3.5529975	0.4965	5.734159	26.93305
270	16.92630	3.5495670	0.4875	5.746535	26.98816
271	16.80689	3.5462090	0.4572	5.758357	27.03987
272	16.66544	3.5439070	0.4240	5.771918	27.11562
273	16.46025	3.5436052	0.3997	5.790772	27.25211
274	16.27767	3.5429863	0.3846	5.807730	27.37152
275	16.19698	3.5413958	0.3664	5.815647	27.41328
276	16.16195	3.5403161	0.3665	5.819207	27.42810
277	16.10361	3.5384996	0.3755	5.825151	27.45266
278	16.03954	3.5374270	0.3877	5.831408	27.48764
279	15.97948	3.5356952	0.4059	5.837506	27.51423
280	15.91940	3.5345001	0.4392	5.843452	27.54553
281	15.86450	3.5332663	0.4574	5.848938	27.57298
282	15.81645	3.5320714	0.4665	5.853781	27.59604
283	15.76690	3.5304115	0.4634	5.858915	27.61617
284	15.69466	3.5276542	0.4574	5.866518	27.64265
285	15.61519	3.5270738	0.4272	5.874137	27.69321
286	15.54346	3.5260673	0.3969	5.881177	27.73477
287	15.46557	3.5254547	0.3757	5.888687	27.78423
288	15.40006	3.5254555	0.3485	5.894851	27.83045
289	15.35305	3.5254560	0.3455	5.899281	27.86371
290	15.33631	3.5262375	0.3637	5.900613	27.88241
291	15.33209	3.5260697	0.3909	5.901064	27.88392
292	15.34065	3.5258953	0.4213	5.900312	27.87631
293	15.35538	3.5256820	0.4606	5.898991	27.86400
294	15.36726	3.5246811	0.4939	5.898187	27.84681
295	15.38194	3.5239514	0.5212	5.897035	27.83004
296	15.37694	3.5231575	0.5363	5.897756	27.82662
297	15.34831	3.5219250	0.5516	5.900845	27.83605
298	15.33027	3.5211249	0.5364	5.902800	27.84180
299	15.30868	3.5205378	0.5213	5.905024	27.85194
300	15.24185	3.5204741	0.5152	5.911361	27.89876
301	15.18110	3.5210556	0.5183	5.916927	27.94707
302	15.15017	3.5217400	0.5214	5.919638	27.97512
303	15.13895	3.5220952	0.5395	5.920589	27.98625
304	15.15727	3.5223531	0.5728	5.918771	27.97544
305	15.19699	3.5224560	0.6001	5.914978	27.94805
306	15.22911	3.5225783	0.6304	5.911899	27.92627
307	15.25130	3.5225780	0.6516	5.909801	27.91050
308	15.27707	3.5225906	0.6486	5.907362	27.89232
309	15.29702	3.5225775	0.6395	5.905482	27.87806
310	15.30551	3.5221578	0.6245	5.904812	27.86837
311	15.31186	3.5219448	0.6093	5.904280	27.86200
312	15.29443	3.5219643	0.5973	5.905920	27.87453
313	15.27435	3.5217645	0.6064	5.907880	27.88701
314	15.25311	3.5215711	0.6094	5.909949	27.90038
315	15.22859	3.5215068	0.6397	5.912289	27.91722
316	15.20758	3.5211844	0.6578	5.914380	27.92931
317	15.19640	3.5210942	0.6760	5.915467	27.93646
318	15.19382	3.5209909	0.6882	5.915745	27.93739
319	15.19382	3.5206683	0.6942	5.915847	27.93455
320	15.18613	3.5203780	0.6882	5.916668	27.93747
321	15.17296	3.5198619	0.6701	5.918080	27.94231
322	15.15243	3.5192168	0.6398	5.920230	27.95125
323	15.11722	3.5184430	0.6157	5.923817	27.96954
324	15.07489	3.5180177	0.5914	5.927971	27.99601
325	15.02708	3.5176311	0.5612	5.932639	28.02679
326	14.98024	3.5175929	0.5431	5.937108	28.06001
327	14.92801	3.5174065	0.5552	5.942143	28.09584
328	14.89341	3.5175681	0.5704	5.945391	28.12215
329	14.88566	3.5175940	0.5916	5.946122	28.12795
330	14.89962	3.5176326	0.6037	5.944778	28.11824
331	14.92045	3.5172775	0.6067	5.942907	28.10012
332	14.94571	3.5168450	0.5917	5.940638	28.07815
333	14.95630	3.5160838	0.5765	5.939874	28.06382
334	14.95040	3.5152131	0.5523	5.940717	28.06035
335	14.93019	3.5145297	0.5372	5.942863	28.06881
336	14.89802	3.5144011	0.5251	5.945973	28.09078
337	14.86107	3.5139179	0.5101	5.949656	28.11307
338	14.83549	3.5134474	0.5040	5.952253	28.12732
339	14.81989	3.5131445	0.5040	5.953843	28.13587
340	14.79554	3.5133705	0.5010	5.956098	28.15544
341	14.77211	3.5132805	0.5223	5.958370	28.17155
342	14.75928	3.5130485	0.5374	5.959674	28.17875
343	14.75105	3.5130809	0.5465	5.960451	28.18498
344	14.75200	3.5131067	0.5586	5.960352	28.18451
345	14.76196	3.5135644	0.5557	5.959250	28.18139
346	14.78277	3.5137576	0.5557	5.957195	28.16808
347	14.80333	3.5141571	0.5436	5.955098	28.15679
348	14.82078	3.5142408	0.5558	5.953403	28.14495
349	14.84182	3.5145630	0.5739	5.951288	28.13264
350	14.87368	3.5145304	0.5951	5.948255	28.10940
351	14.90205	3.5144333	0.6254	5.945579	28.08813
352	14.92468	3.5145298	0.6436	5.943390	28.07273
353	14.95033	3.5144328	0.6527	5.940975	28.05346
354	14.98223	3.5144647	0.6406	5.937925	28.03088
355	15.01018	3.5147868	0.6134	5.935161	28.01374
356	15.03294	3.5151799	0.5832	5.932869	28.00094
357	15.05346	3.5158891	0.5408	5.930689	27.99256
358	15.07251	3.5163404	0.5166	5.928734	27.98294
359	15.08764	3.5168434	0.5167	5.927135	27.97657
360	15.09898	3.5168884	0.5288	5.926044	27.96888
361	15.11180	3.5168560	0.5379	5.924837	27.95944
362	15.12528	3.5165721	0.5591	5.923649	27.94733
363	15.14334	3.5163719	0.5561	5.922000	27.93271
364	15.15973	3.5160814	0.5592	5.920538	27.91849
365	15.16954	3.5156492	0.5380	5.919745	27.90771
366	15.17051	3.5153396	0.5229	5.919751	27.90430
367	15.16276	3.5147528	0.4957	5.920673	27.90465
368	15.14817	3.5140565	0.4836	5.922278	27.90890
369	15.13056	3.5131732	0.4564	5.924231	27.91366
370	15.10214	3.5120775	0.4322	5.927281	27.92425
371	15.06234	3.5104211	0.4383	5.931595	27.93800
372	15.01436	3.5096611	0.4505	5.936407	27.96552
373	14.97703	3.5080181	0.4717	5.940492	27.97766
374	14.95534	3.5074706	0.4959	5.942738	27.98833
375	14.90045	3.5075679	0.5141	5.947947	28.02849
376	14.83478	3.5068985	0.5111	5.954442	28.06971
377	14.79867	3.5072146	0.4930	5.957796	28.09850
378	14.78545	3.5078914	0.4597	5.958842	28.11405
379	14.80027	3.5087612	0.4295	5.957141	28.11111
380	14.80282	3.5089223	0.4083	5.956843	28.11070
381	14.80212	3.5088578	0.4174	5.956932	28.11064
382	14.81330	3.5083228	0.4477	5.956035	28.09782
383	14.82871	3.5081809	0.4719	5.954607	28.08547
384	14.84035	3.5080519	0.5023	5.953536	28.07594
385	14.84386	3.5081872	0.5356	5.953156	28.07460
386	14.85180	3.5086318	0.5568	5.952254	28.07284
387	14.84943	3.5091474	0.5629	5.952314	28.07911
388	14.84572	3.5095406	0.5629	5.952541	28.08527
389	14.84885	3.5099208	0.5539	5.952118	28.08639
390	14.85218	3.5103720	0.5327	5.951654	28.08801
391	14.86050	3.5108296	0.5237	5.950711	28.08609
392	14.87189	3.5112742	0.5146	5.949478	28.08185
393	14.88053	3.5118544	0.5177	5.948465	28.08078
394	14.88662	3.5126280	0.5389	5.947634	28.08325
395	14.89539	3.5127568	0.5601	5.946755	28.07808
396	14.91231	3.5130726	0.5783	5.945039	28.06873
397	14.94007	3.5134979	0.6056	5.942254	28.05256
398	14.96561	3.5135621	0.6207	5.939800	28.03482
399	14.99122	3.5135489	0.6087	5.937363	28.01636
400	15.01751	3.5136259	0.5966	5.934836	27.99825
401	15.03628	3.5138837	0.5876	5.932966	27.98711
402	15.04445	3.5139222	0.5694	5.932177	27.98162
403	15.04471	3.5139480	0.5573	5.932144	27.98167
404	15.04561	3.5133999	0.5665	5.932234	27.97618
405	15.04612	3.5144317	0.5786	5.931854	27.98492
406	15.04709	3.5137223	0.5817	5.931990	27.97796
407	15.05494	3.5139802	0.5968	5.931161	27.97463
408	15.06375	3.5144637	0.6151	5.930168	27.97260
409	15.07161	3.5147538	0.6150	5.929329	27.96955
410	15.07528	3.5150827	0.6181	5.928874	27.96983
411	15.07798	3.5151407	0.6181	5.928599	27.96842
412	15.07856	3.5152117	0.6151	5.928521	27.96863
413	15.08114	3.5153084	0.6001	5.928245	27.96765
414	15.08571	3.5154502	0.5940	5.927765	27.96564
415	15.08945	3.5155985	0.5880	5.927363	27.96428
416	15.09202	3.5157597	0.5790	5.927066	27.96387
